"Time (min)"	"Temperature (°C)"	"Weight (mg)"
7.77778E-4	26.06810	20.73122
.004166667	26.09367	20.73125
0.01250000	26.11592	20.73130
0.02083334	26.12412	20.73133
0.02916666	26.14180	20.73134
0.03750000	26.16040	20.73138
0.04583334	26.17752	20.73146
0.05416668	26.19519	20.73152
0.06250000	26.21383	20.73153
0.07083332	26.23364	20.73148
0.07916666	26.24614	20.73138
0.08750000	26.26545	20.73127
0.09583332	26.28678	20.73120
0.1041666	26.30735	20.73113
0.1125000	26.33544	20.73106
0.1208333	26.35396	20.73097
0.1291666	26.37144	20.73083
0.1375000	26.39527	20.73071
0.1458333	26.41432	20.73062
0.1541667	26.43440	20.73054
0.1625000	26.45113	20.73048
0.1708334	26.45590	20.73042
0.1791666	26.47871	20.73030
0.1875000	26.50244	20.73025
0.1958334	26.52487	20.73021
0.2041667	26.55896	20.73013
0.2125000	26.58538	20.73003
0.2208333	26.61086	20.72993
0.2291667	26.63840	20.72980
0.2375000	26.65710	20.72969
0.2458334	26.67345	20.72962
0.2541666	26.69962	20.72954
0.2625000	26.73166	20.72942
0.2708334	26.76083	20.72925
0.2791667	26.79651	20.72909
0.2875000	26.83670	20.72896
0.2958333	26.85174	20.72887
0.3041667	26.88592	20.72880
0.3125000	26.92242	20.72870
0.3208333	26.95979	20.72856
0.3291667	26.99350	20.72841
0.3375000	27.03045	20.72826
0.3458333	27.06486	20.72816
0.3541666	27.10786	20.72808
0.3625000	27.14813	20.72798
0.3708334	27.18967	20.72788
0.3791666	27.23076	20.72774
0.3875000	27.28004	20.72758
0.3958334	27.32274	20.72746
0.4041666	27.36622	20.72736
0.4125000	27.41640	20.72722
0.4208333	27.46836	20.72708
0.4291667	27.51396	20.72696
0.4375000	27.56581	20.72680
0.4458333	27.61954	20.72666
0.4541667	27.67210	20.72654
0.4625000	27.72864	20.72641
0.4708334	27.78534	20.72630
0.4791666	27.84274	20.72617
0.4875000	27.90356	20.72604
0.4958334	27.96339	20.72592
0.5041666	28.02560	20.72577
0.5125000	28.08584	20.72561
0.5208332	28.14754	20.72547
0.5291666	28.21737	20.72529
0.5375000	28.28188	20.72511
0.5458334	28.35402	20.72496
0.5541668	28.42179	20.72482
0.5625000	28.49156	20.72467
0.5708332	28.56472	20.72446
0.5791666	28.64010	20.72423
0.5875000	28.71210	20.72405
0.5958334	28.79118	20.72388
0.6041668	28.86598	20.72373
0.6125000	28.94541	20.72360
0.6208334	29.02422	20.72348
0.6291666	29.10812	20.72334
0.6375000	29.18795	20.72316
0.6458332	29.27869	20.72298
0.6541666	29.36190	20.72286
0.6625000	29.45056	20.72276
0.6708334	29.54318	20.72266
0.6791668	29.62790	20.72258
0.6875000	29.72252	20.72246
0.6958332	29.81724	20.72233
0.7041666	29.91270	20.72218
0.7125000	30.01294	20.72198
0.7208334	30.10430	20.72181
0.7291668	30.20230	20.72164
0.7375000	30.29999	20.72145
0.7458334	30.40986	20.72126
0.7541666	30.52164	20.72105
0.7625000	30.62548	20.72083
0.7708332	30.72718	20.72062
0.7791666	30.83726	20.72043
0.7875000	30.94550	20.72024
0.7958334	31.05400	20.72013
0.8041668	31.16511	20.72003
0.8125000	31.27711	20.71991
0.8208332	31.39115	20.71980
0.8291666	31.50768	20.71969
0.8375000	31.62278	20.71960
0.8458334	31.72911	20.71948
0.8541668	31.84664	20.71934
0.8625000	31.96181	20.71919
0.8708332	32.08361	20.71901
0.8791668	32.20540	20.71880
0.8875000	32.33020	20.71856
0.8958332	32.45123	20.71836
0.9041666	32.58062	20.71816
0.9125000	32.70900	20.71794
0.9208334	32.83469	20.71770
0.9291668	32.96740	20.71747
0.9375000	33.09222	20.71728
0.9458332	33.22711	20.71709
0.9541666	33.36239	20.71690
0.9625000	33.49553	20.71676
0.9708334	33.63114	20.71660
0.9791668	33.76582	20.71639
0.9875000	33.90103	20.71624
0.9958332	34.04545	20.71609
1.004167	34.18675	20.71593
1.012500	34.32746	20.71578
1.020833	34.46776	20.71564
1.029167	34.61457	20.71546
1.037500	34.75512	20.71527
1.045834	34.90367	20.71509
1.054167	35.04507	20.71494
1.062500	35.19178	20.71482
1.070833	35.34275	20.71467
1.079166	35.49225	20.71450
1.087500	35.64210	20.71436
1.095833	35.80112	20.71423
1.104166	35.95535	20.71408
1.112500	36.09740	20.71389
1.120833	36.26661	20.71370
1.129167	36.42236	20.71352
1.137500	36.58166	20.71334
1.145834	36.73481	20.71312
1.154167	36.89098	20.71289
1.162500	37.05154	20.71264
1.170834	37.21113	20.71236
1.179167	37.37570	20.71211
1.187500	37.53424	20.71194
1.195833	37.69614	20.71175
1.204166	37.85455	20.71158
1.212500	38.02041	20.71136
1.220833	38.18518	20.71114
1.229166	38.34860	20.71098
1.237500	38.50109	20.71082
1.245833	38.66892	20.71069
1.254167	38.83212	20.71060
1.262500	39.00250	20.71039
1.270834	39.18003	20.71006
1.279167	39.34031	20.70984
1.287500	39.50960	20.70964
1.295834	39.67920	20.70942
1.304167	39.85303	20.70926
1.312500	40.02206	20.70905
1.320833	40.19853	20.70886
1.329166	40.37380	20.70862
1.337500	40.54384	20.70832
1.345833	40.72106	20.70806
1.354166	40.89170	20.70791
1.362500	41.06810	20.70775
1.370833	41.24868	20.70755
1.379167	41.42729	20.70733
1.387500	41.59996	20.70704
1.395834	41.77832	20.70674
1.404167	41.95806	20.70644
1.412500	42.13580	20.70620
1.420834	42.31556	20.70603
1.429167	42.49246	20.70590
1.437500	42.67450	20.70570
1.445833	42.85733	20.70545
1.454166	43.03362	20.70519
1.462500	43.21318	20.70497
1.470833	43.39334	20.70476
1.479166	43.57670	20.70454
1.487500	43.76096	20.70431
1.495833	43.94665	20.70409
1.504167	44.12342	20.70385
1.512500	44.30990	20.70358
1.520834	44.49638	20.70328
1.529167	44.67772	20.70296
1.537500	44.86306	20.70268
1.545834	45.04810	20.70241
1.554167	45.23395	20.70219
1.562500	45.41902	20.70201
1.570833	45.60200	20.70174
1.579166	45.78736	20.70136
1.587500	45.97280	20.70098
1.595833	46.16266	20.70061
1.604166	46.34326	20.70027
1.612500	46.53197	20.70004
1.620833	46.71631	20.69981
1.629167	46.90646	20.69955
1.637500	47.09102	20.69922
1.645834	47.27996	20.69885
1.654167	47.46804	20.69852
1.662500	47.65564	20.69824
1.670834	47.84197	20.69799
1.679166	48.02724	20.69772
1.687500	48.21546	20.69742
1.695834	48.40743	20.69707
1.704166	48.59591	20.69671
1.712500	48.78418	20.69634
1.720833	48.97290	20.69598
1.729166	49.16078	20.69563
1.737500	49.34898	20.69527
1.745833	49.53786	20.69495
1.754167	49.72610	20.69462
1.762500	49.91522	20.69429
1.770834	50.10122	20.69394
1.779167	50.29210	20.69355
1.787500	50.47989	20.69315
1.795834	50.66896	20.69274
1.804166	50.85996	20.69234
1.812500	51.04560	20.69195
1.820834	51.23676	20.69163
1.829166	51.42134	20.69130
1.837500	51.60920	20.69094
1.845833	51.79804	20.69057
1.854166	51.99150	20.69018
1.862500	52.17602	20.68986
1.870833	52.36628	20.68957
1.879167	52.55178	20.68933
1.887500	52.74208	20.68908
1.895834	52.93180	20.68876
1.904167	53.11597	20.68836
1.912500	53.30500	20.68794
1.920834	53.49438	20.68756
1.929166	53.67822	20.68723
1.937500	53.86668	20.68692
1.945834	54.05263	20.68656
1.954166	54.24141	20.68611
1.962500	54.42769	20.68562
1.970833	54.61450	20.68514
1.979166	54.80464	20.68471
1.987500	54.98814	20.68433
1.995833	55.17402	20.68398
2.004166	55.36046	20.68362
2.012500	55.54849	20.68320
2.020833	55.73682	20.68274
2.029167	55.91826	20.68226
2.037500	56.10278	20.68185
2.045834	56.29568	20.68142
2.054166	56.47950	20.68102
2.062500	56.66355	20.68062
2.070834	56.85046	20.68020
2.079166	57.03459	20.67974
2.087500	57.21985	20.67918
2.095833	57.40385	20.67860
2.104167	57.58691	20.67812
2.112500	57.77305	20.67767
2.120834	57.95437	20.67723
2.129166	58.13911	20.67680
2.137500	58.32656	20.67632
2.145833	58.50590	20.67579
2.154167	58.69294	20.67530
2.162500	58.87515	20.67482
2.170834	59.05976	20.67434
2.179166	59.24455	20.67390
2.187500	59.42405	20.67340
2.195834	59.60786	20.67291
2.204166	59.79105	20.67238
2.212500	59.97036	20.67181
2.220833	60.15120	20.67125
2.229167	60.33438	20.67068
2.237500	60.51276	20.67008
2.245834	60.69568	20.66949
2.254166	60.87774	20.66898
2.262500	61.05731	20.66846
2.270833	61.24115	20.66794
2.279167	61.41743	20.66741
2.287500	61.59582	20.66692
2.295834	61.77826	20.66646
2.304166	61.95951	20.66603
2.312500	62.13871	20.66559
2.320834	62.31588	20.66508
2.329166	62.49570	20.66452
2.337500	62.67157	20.66394
2.345833	62.85205	20.66337
2.354167	63.03443	20.66281
2.362500	63.21034	20.66227
2.370834	63.38919	20.66176
2.379166	63.56570	20.66123
2.387500	63.73839	20.66061
2.395833	63.91470	20.66004
2.404167	64.09057	20.65956
2.412500	64.26828	20.65913
2.420834	64.44736	20.65869
2.429166	64.62598	20.65824
2.437500	64.79841	20.65776
2.445834	64.97498	20.65721
2.454166	65.14729	20.65659
2.462500	65.32510	20.65594
2.470833	65.49882	20.65533
2.479167	65.67124	20.65475
2.487500	65.85005	20.65413
2.495834	66.02070	20.65351
2.504166	66.19647	20.65285
2.512500	66.36958	20.65214
2.520833	66.54280	20.65142
2.529167	66.71634	20.65078
2.537500	66.88913	20.65017
2.545834	67.06131	20.64956
2.554166	67.23526	20.64896
2.562500	67.40562	20.64830
2.570834	67.57621	20.64766
2.579166	67.75088	20.64702
2.587500	67.92202	20.64642
2.595833	68.09318	20.64589
2.604167	68.26516	20.64536
2.612500	68.43575	20.64478
2.620834	68.60976	20.64420
2.629166	68.77538	20.64360
2.637500	68.94594	20.64298
2.645833	69.12175	20.64234
2.654167	69.29634	20.64170
2.662500	69.45447	20.64108
2.670834	69.63606	20.64047
2.679166	69.79524	20.63984
2.687500	69.96412	20.63919
2.695834	70.13179	20.63851
2.704166	70.29809	20.63781
2.712500	70.46966	20.63713
2.720833	70.64024	20.63649
2.729167	70.80870	20.63583
2.737500	70.97272	20.63513
2.745834	71.14212	20.63444
2.754166	71.31109	20.63374
2.762500	71.47804	20.63299
2.770833	71.64620	20.63218
2.779167	71.81665	20.63140
2.787500	71.97974	20.63069
2.795834	72.14580	20.63002
2.804166	72.31387	20.62935
2.812500	72.47751	20.62866
2.820834	72.64209	20.62795
2.829166	72.81096	20.62721
2.837500	72.97688	20.62645
2.845833	73.14452	20.62567
2.854167	73.31064	20.62499
2.862500	73.47637	20.62430
2.870834	73.64220	20.62360
2.879166	73.80320	20.62287
2.887500	73.97094	20.62213
2.895833	74.13478	20.62142
2.904167	74.29739	20.62072
2.912500	74.46228	20.61998
2.920834	74.62680	20.61924
2.929166	74.79044	20.61856
2.937500	74.95507	20.61789
2.945834	75.11928	20.61720
2.954166	75.28372	20.61649
2.962500	75.44744	20.61576
2.970833	75.61030	20.61501
2.979167	75.77438	20.61427
2.987500	75.93809	20.61352
2.995834	76.09586	20.61280
3.004166	76.27251	20.61209
3.012500	76.43506	20.61128
3.020833	76.58574	20.61038
3.029167	76.75191	20.60946
3.037500	76.91366	20.60850
3.045834	77.07650	20.60756
3.054166	77.23609	20.60674
3.062500	77.39918	20.60598
3.070834	77.55910	20.60525
3.079166	77.72208	20.60451
3.087500	77.88378	20.60378
3.095833	78.04780	20.60309
3.104167	78.20984	20.60242
3.112500	78.37010	20.60179
3.120834	78.53388	20.60122
3.129166	78.69311	20.60061
3.137500	78.85422	20.59994
3.145833	79.01220	20.59918
3.154167	79.17429	20.59840
3.162500	79.33525	20.59761
3.170834	79.50108	20.59680
3.179166	79.65886	20.59602
3.187500	79.82299	20.59530
3.195834	79.97912	20.59454
3.204167	80.14106	20.59374
3.212500	80.30293	20.59298
3.220833	80.46391	20.59221
3.229167	80.62416	20.59144
3.237500	80.78512	20.59068
3.245834	80.94206	20.58991
3.254166	81.10478	20.58917
3.262500	81.26270	20.58842
3.270833	81.42231	20.58762
3.279167	81.58470	20.58680
3.287500	81.74294	20.58604
3.295833	81.90593	20.58523
3.304166	82.08103	20.58440
3.312500	82.24081	20.58358
3.320834	82.39828	20.58278
3.329167	82.55958	20.58196
3.337500	82.71361	20.58114
3.345833	82.86710	20.58034
3.354167	83.02902	20.57955
3.362500	83.18586	20.57878
3.370834	83.34919	20.57798
3.379166	83.50429	20.57715
3.387500	83.66822	20.57634
3.395833	83.82603	20.57558
3.404167	83.98869	20.57477
3.412500	84.14316	20.57397
3.420833	84.30407	20.57315
3.429166	84.46072	20.57234
3.437500	84.62472	20.57156
3.445834	84.78184	20.57072
3.454167	84.93974	20.56990
3.462500	85.10032	20.56910
3.470833	85.25894	20.56828
3.479167	85.41530	20.56743
3.487500	85.57710	20.56659
3.495834	85.73921	20.56577
3.504166	85.89601	20.56494
3.512500	86.05772	20.56412
3.520833	86.22019	20.56329
3.529167	86.37672	20.56245
3.537500	86.53550	20.56159
3.545833	86.69335	20.56075
3.554166	86.85408	20.55986
3.562500	87.01331	20.55891
3.570834	87.18358	20.55804
3.579167	87.33504	20.55719
3.587500	87.49351	20.55629
3.595833	87.65411	20.55538
3.604167	87.81366	20.55449
3.612500	87.97191	20.55365
3.620834	88.13184	20.55282
3.629166	88.28918	20.55197
3.637500	88.44825	20.55117
3.645833	88.60918	20.55042
3.654167	88.76994	20.54958
3.662500	88.93112	20.54873
3.670833	89.09094	20.54796
3.679166	89.24540	20.54715
3.687500	89.41122	20.54629
3.695834	89.57075	20.54544
3.704167	89.72890	20.54457
3.712500	89.88884	20.54369
3.720833	90.04745	20.54280
3.729167	90.20840	20.54190
3.737500	90.36492	20.54099
3.745834	90.52505	20.54006
3.754166	90.68634	20.53920
3.762500	90.84381	20.53838
3.770833	91.00749	20.53752
3.779167	91.16379	20.53664
3.787500	91.32931	20.53577
3.795833	91.48576	20.53490
3.804166	91.64738	20.53400
3.812500	91.80418	20.53312
3.820834	91.96768	20.53225
3.829167	92.12647	20.53138
3.837500	92.28503	20.53040
3.845833	92.44648	20.52943
3.854167	92.60636	20.52852
3.862500	92.76516	20.52763
3.870834	92.92462	20.52677
3.879166	93.08715	20.52589
3.887500	93.24962	20.52501
3.895833	93.40982	20.52412
3.904167	93.56991	20.52324
3.912500	93.72847	20.52232
3.920833	93.88861	20.52139
3.929166	94.05128	20.52050
3.937500	94.20920	20.51966
3.945834	94.37118	20.51881
3.954167	94.53224	20.51789
3.962500	94.69124	20.51695
3.970833	94.85309	20.51605
3.979167	95.01408	20.51519
3.987500	95.17379	20.51428
3.995834	95.33541	20.51341
4.004166	95.49997	20.51254
4.012500	95.65759	20.51166
4.020834	95.82006	20.51074
4.029167	95.98181	20.50976
4.037500	96.13996	20.50885
4.045833	96.30134	20.50800
4.054167	96.46534	20.50713
4.062500	96.62866	20.50625
4.070833	96.79921	20.50534
4.079167	96.96149	20.50439
4.087500	97.12350	20.50344
4.095833	97.28399	20.50245
4.104166	97.44550	20.50148
4.112500	97.60884	20.50060
4.120834	97.76684	20.49971
4.129166	97.91859	20.49881
4.137500	98.07856	20.49786
4.145834	98.24262	20.49685
4.154167	98.40081	20.49589
4.162500	98.56574	20.49500
4.170833	98.72891	20.49414
4.179167	98.88934	20.49333
4.187500	99.04995	20.49250
4.195833	99.21902	20.49161
4.204167	99.37426	20.49066
4.212500	99.53947	20.48971
4.220833	99.70347	20.48880
4.229166	99.86274	20.48796
4.237500	100.0227	20.48716
4.245834	100.1878	20.48634
4.254166	100.3520	20.48547
4.262500	100.5152	20.48452
4.270834	100.6737	20.48352
4.279167	100.8467	20.48252
4.287500	101.0055	20.48156
4.295833	101.1648	20.48066
4.304167	101.3284	20.47979
4.312500	101.4900	20.47888
4.320833	101.6546	20.47792
4.329167	101.8172	20.47692
4.337500	101.9820	20.47589
4.345833	102.1445	20.47494
4.354166	102.3101	20.47401
4.362500	102.4718	20.47303
4.370834	102.6454	20.47207
4.379166	102.8067	20.47112
4.387500	102.9579	20.47009
4.395834	103.1252	20.46908
4.404167	103.2859	20.46807
4.412500	103.4488	20.46712
4.420833	103.6166	20.46623
4.429167	103.7784	20.46536
4.437500	103.9406	20.46449
4.445833	104.1055	20.46367
4.454167	104.2664	20.46284
4.462500	104.4313	20.46192
4.470833	104.5972	20.46100
4.479166	104.7594	20.46007
4.487500	104.9222	20.45914
4.495834	105.0888	20.45824
4.504166	105.2508	20.45730
4.512500	105.4132	20.45633
4.520834	105.5807	20.45532
4.529167	105.7436	20.45427
4.537500	105.9080	20.45325
4.545833	106.0708	20.45228
4.554167	106.2365	20.45137
4.562500	106.4008	20.45042
4.570833	106.5643	20.44939
4.579167	106.7297	20.44838
4.587500	106.8939	20.44741
4.595833	107.0576	20.44644
4.604166	107.2236	20.44547
4.612500	107.3848	20.44454
4.620834	107.5506	20.44361
4.629166	107.7192	20.44257
4.637500	107.8810	20.44150
4.645834	108.0625	20.44051
4.654167	108.2151	20.43964
4.662500	108.3746	20.43868
4.670833	108.5407	20.43767
4.679167	108.7097	20.43668
4.687500	108.8804	20.43574
4.695833	109.0356	20.43476
4.704167	109.2020	20.43368
4.712500	109.3669	20.43263
4.720833	109.5316	20.43164
4.729166	109.6940	20.43066
4.737500	109.8641	20.42966
4.745834	110.0260	20.42872
4.754166	110.1910	20.42775
4.762500	110.3571	20.42674
4.770834	110.5223	20.42570
4.779167	110.6920	20.42471
4.787500	110.8532	20.42379
4.795833	111.0178	20.42284
4.804167	111.1851	20.42179
4.812500	111.3529	20.42074
4.820833	111.5194	20.41973
4.829167	111.6840	20.41871
4.837500	111.8476	20.41772
4.845833	112.0146	20.41678
4.854166	112.1804	20.41583
4.862500	112.3459	20.41484
4.870834	112.5135	20.41384
4.879166	112.6796	20.41287
4.887500	112.8437	20.41194
4.895834	113.0084	20.41101
4.904167	113.1754	20.41004
4.912500	113.3447	20.40902
4.920833	113.5117	20.40799
4.929167	113.6729	20.40688
4.937500	113.8424	20.40571
4.945833	114.0112	20.40458
4.954167	114.1776	20.40353
4.962500	114.3422	20.40257
4.970833	114.5066	20.40160
4.979166	114.6734	20.40058
4.987500	114.8413	20.39947
4.995834	115.0078	20.39833
5.004166	115.1729	20.39724
5.012500	115.3404	20.39624
5.020834	115.5081	20.39530
5.029167	115.6695	20.39440
5.037500	115.8375	20.39340
5.045833	116.0020	20.39232
5.054167	116.1710	20.39121
5.062500	116.3372	20.39006
5.070833	116.5164	20.38898
5.079167	116.6841	20.38798
5.087500	116.8508	20.38700
5.095833	117.0107	20.38601
5.104166	117.1754	20.38501
5.112500	117.3386	20.38399
5.120834	117.5090	20.38299
5.129166	117.6730	20.38201
5.137500	117.8411	20.38104
5.145834	118.0086	20.38011
5.154167	118.1752	20.37916
5.162500	118.3401	20.37821
5.170833	118.5048	20.37720
5.179167	118.6724	20.37612
5.187500	118.8405	20.37501
5.195833	119.0098	20.37391
5.204167	119.1754	20.37290
5.212500	119.3419	20.37195
5.220833	119.5087	20.37097
5.229166	119.6750	20.36998
5.237500	119.8416	20.36897
5.245834	120.0079	20.36793
5.254166	120.1752	20.36692
5.262500	120.3405	20.36596
5.270834	120.5084	20.36508
5.279168	120.6772	20.36418
5.287500	120.8446	20.36317
5.295832	121.0120	20.36211
5.304168	121.1790	20.36105
5.312500	121.3456	20.36003
5.320832	121.5132	20.35904
5.329168	121.6829	20.35801
5.337500	121.8473	20.35695
5.345832	122.0170	20.35593
5.354166	122.1828	20.35483
5.362500	122.3512	20.35364
5.370834	122.5231	20.35249
5.379166	122.6954	20.35142
5.387500	122.8668	20.35039
5.395834	123.0290	20.34935
5.404168	123.1886	20.34833
5.412500	123.3563	20.34730
5.420832	123.5217	20.34628
5.429168	123.6885	20.34525
5.437500	123.8586	20.34423
5.445832	124.0239	20.34329
5.454168	124.1906	20.34235
5.462500	124.3576	20.34133
5.470832	124.5258	20.34032
5.479166	124.6913	20.33930
5.487500	124.8600	20.33823
5.495834	125.0284	20.33720
5.504166	125.1957	20.33618
5.512500	125.3651	20.33512
5.520834	125.5275	20.33410
5.529168	125.6960	20.33308
5.537500	125.8742	20.33204
5.545832	126.0371	20.33100
5.554168	126.2021	20.32994
5.562500	126.3712	20.32892
5.570832	126.5392	20.32791
5.579168	126.7011	20.32686
5.587500	126.8828	20.32579
5.595832	127.0529	20.32476
5.604166	127.2201	20.32375
5.612500	127.3900	20.32266
5.620834	127.5551	20.32156
5.629166	127.7225	20.32049
5.637500	127.8894	20.31942
5.645834	128.0595	20.31835
5.654168	128.2237	20.31728
5.662500	128.3824	20.31626
5.670832	128.5477	20.31526
5.679168	128.7270	20.31422
5.687500	128.8968	20.31314
5.695832	129.0652	20.31212
5.704168	129.2298	20.31110
5.712500	129.3998	20.31008
5.720832	129.5662	20.30905
5.729166	129.7357	20.30801
5.737500	129.8980	20.30698
5.745834	130.0598	20.30594
5.754166	130.2241	20.30486
5.762500	130.3936	20.30377
5.770834	130.5633	20.30271
5.779168	130.7290	20.30168
5.787500	130.8971	20.30062
5.795832	131.0634	20.29952
5.804168	131.2297	20.29838
5.812500	131.4003	20.29729
5.820832	131.5666	20.29621
5.829168	131.7334	20.29512
5.837500	131.9024	20.29407
5.845832	132.0682	20.29303
5.854166	132.2374	20.29196
5.862500	132.4052	20.29084
5.870834	132.5703	20.28974
5.879166	132.7384	20.28868
5.887500	132.9086	20.28766
5.895834	133.0759	20.28659
5.904168	133.2429	20.28553
5.912500	133.4248	20.28447
5.920832	133.5797	20.28340
5.929168	133.7481	20.28235
5.937500	133.9121	20.28129
5.945832	134.0802	20.28026
5.954168	134.2503	20.27923
5.962500	134.4144	20.27816
5.970832	134.5858	20.27710
5.979166	134.7627	20.27605
5.987500	134.9192	20.27491
5.995834	135.0828	20.27376
6.004166	135.2582	20.27260
6.012500	135.4217	20.27144
6.020834	135.5936	20.27034
6.029168	135.7581	20.26926
6.037500	135.9238	20.26819
6.045832	136.0906	20.26710
6.054168	136.2610	20.26602
6.062500	136.4266	20.26496
6.070832	136.5924	20.26398
6.079168	136.7635	20.26295
6.087500	136.9274	20.26193
6.095832	137.0986	20.26090
6.104166	137.2648	20.25984
6.112500	137.4329	20.25869
6.120834	137.5992	20.25751
6.129166	137.7686	20.25638
6.137500	137.9330	20.25528
6.145834	138.1033	20.25419
6.154168	138.2726	20.25308
6.162500	138.4371	20.25202
6.170832	138.6093	20.25093
6.179168	138.7741	20.24977
6.187500	138.9492	20.24860
6.195832	139.1189	20.24752
6.204168	139.2904	20.24650
6.212500	139.4579	20.24547
6.220832	139.6235	20.24440
6.229166	139.7930	20.24329
6.237500	139.9594	20.24216
6.245834	140.1272	20.24097
6.254166	140.2964	20.23975
6.262500	140.4572	20.23864
6.270834	140.6183	20.23756
6.279168	140.7834	20.23645
6.287500	140.9554	20.23530
6.295832	141.1220	20.23416
6.304168	141.2876	20.23300
6.312500	141.4535	20.23183
6.320832	141.6232	20.23069
6.329168	141.7908	20.22962
6.337500	141.9594	20.22860
6.345832	142.1264	20.22752
6.354166	142.2972	20.22640
6.362500	142.4628	20.22530
6.370834	142.6303	20.22420
6.379166	142.7992	20.22306
6.387500	142.9638	20.22194
6.395834	143.1327	20.22082
6.404166	143.3010	20.21974
6.412500	143.4728	20.21867
6.420832	143.6384	20.21755
6.429168	143.8050	20.21644
6.437500	143.9745	20.21534
6.445832	144.1395	20.21424
6.454168	144.3086	20.21312
6.462500	144.4740	20.21204
6.470834	144.6458	20.21096
6.479166	144.8138	20.20988
6.487500	144.9778	20.20872
6.495834	145.1468	20.20752
6.504166	145.3160	20.20641
6.512500	145.4829	20.20531
6.520834	145.6511	20.20419
6.529166	145.8160	20.20306
6.537500	145.9864	20.20192
6.545832	146.1541	20.20078
6.554168	146.3191	20.19965
6.562500	146.4908	20.19854
6.570832	146.6586	20.19745
6.579168	146.8245	20.19635
6.587500	146.9906	20.19525
6.595834	147.1590	20.19414
6.604166	147.3252	20.19299
6.612500	147.4934	20.19178
6.620834	147.6635	20.19058
6.629166	147.8300	20.18942
6.637500	147.9960	20.18828
6.645834	148.1669	20.18711
6.654166	148.3320	20.18592
6.662500	148.4995	20.18476
6.670832	148.6766	20.18357
6.679168	148.8335	20.18234
6.687500	149.0023	20.18114
6.695832	149.1689	20.18004
6.704168	149.3362	20.17894
6.712500	149.5048	20.17780
6.720834	149.6707	20.17660
6.729166	149.8392	20.17544
6.737500	150.0089	20.17430
6.745834	150.1762	20.17312
6.754166	150.3405	20.17196
6.762500	150.5099	20.17084
6.770834	150.6755	20.16972
6.779166	150.8442	20.16854
6.787500	151.0148	20.16735
6.795832	151.1813	20.16614
6.804168	151.3467	20.16495
6.812500	151.5146	20.16377
6.820832	151.6842	20.16256
6.829168	151.8524	20.16133
6.837500	152.0162	20.16008
6.845834	152.1953	20.15884
6.854166	152.3619	20.15766
6.862500	152.5312	20.15650
6.870834	152.6978	20.15536
6.879166	152.8640	20.15426
6.887500	153.0318	20.15312
6.895834	153.1997	20.15193
6.904166	153.3675	20.15077
6.912500	153.5349	20.14961
6.920832	153.7003	20.14844
6.929168	153.8673	20.14729
6.937500	154.0376	20.14612
6.945832	154.1948	20.14494
6.954168	154.3570	20.14367
6.962500	154.5258	20.14240
6.970834	154.6918	20.14118
6.979166	154.8593	20.13992
6.987500	155.0311	20.13866
6.995834	155.1939	20.13748
7.004166	155.3622	20.13629
7.012500	155.5338	20.13505
7.020834	155.7004	20.13381
7.029166	155.8661	20.13256
7.037500	156.0320	20.13137
7.045832	156.1978	20.13010
7.054168	156.3678	20.12884
7.062500	156.5342	20.12763
7.070832	156.7012	20.12638
7.079168	156.8682	20.12510
7.087500	157.0354	20.12380
7.095834	157.2012	20.12255
7.104166	157.3708	20.12130
7.112500	157.5423	20.12003
7.120834	157.7056	20.11882
7.129166	157.8725	20.11765
7.137500	158.0424	20.11644
7.145834	158.2052	20.11521
7.154166	158.3756	20.11400
7.162500	158.5425	20.11280
7.170832	158.7086	20.11162
7.179168	158.8785	20.11041
7.187500	159.0527	20.10917
7.195832	159.2137	20.10788
7.204168	159.3810	20.10652
7.212500	159.5476	20.10518
7.220834	159.7174	20.10391
7.229166	159.8811	20.10268
7.237500	160.0503	20.10147
7.245834	160.2154	20.10025
7.254166	160.3866	20.09894
7.262500	160.5520	20.09764
7.270834	160.7181	20.09637
7.279166	160.8863	20.09516
7.287500	161.0513	20.09400
7.295832	161.2256	20.09285
7.304168	161.3879	20.09164
7.312500	161.5581	20.09041
7.320832	161.7246	20.08912
7.329168	161.8927	20.08784
7.337500	162.0592	20.08664
7.345834	162.2323	20.08540
7.354166	162.3966	20.08412
7.362500	162.5656	20.08283
7.370834	162.7312	20.08153
7.379166	162.9016	20.08018
7.387500	163.0663	20.07880
7.395834	163.2354	20.07747
7.404166	163.4022	20.07616
7.412500	163.5680	20.07486
7.420832	163.7372	20.07360
7.429168	163.9046	20.07237
7.437500	164.0732	20.07109
7.445832	164.2390	20.06976
7.454168	164.4041	20.06852
7.462500	164.5758	20.06731
7.470834	164.7446	20.06608
7.479166	164.9108	20.06483
7.487500	165.0790	20.06356
7.495834	165.2451	20.06229
7.504166	165.4158	20.06099
7.512500	165.5818	20.05966
7.520834	165.7478	20.05840
7.529166	165.9178	20.05722
7.537500	166.0823	20.05592
7.545832	166.2525	20.05460
7.554168	166.4190	20.05331
7.562500	166.5837	20.05200
7.570832	166.7519	20.05070
7.579168	166.9216	20.04942
7.587500	167.0882	20.04813
7.595834	167.2576	20.04683
7.604166	167.4234	20.04554
7.612500	167.5917	20.04420
7.620834	167.7570	20.04286
7.629166	167.9271	20.04154
7.637500	168.0927	20.04018
7.645834	168.2622	20.03887
7.654166	168.4286	20.03762
7.662500	168.5969	20.03631
7.670832	168.7621	20.03498
7.679168	168.9309	20.03367
7.687500	169.0970	20.03234
7.695832	169.2674	20.03104
7.704168	169.4330	20.02975
7.712500	169.5989	20.02846
7.720834	169.7693	20.02724
7.729166	169.9347	20.02594
7.737500	170.1003	20.02460
7.745834	170.2696	20.02326
7.754166	170.4349	20.02189
7.762500	170.6070	20.02051
7.770834	170.7726	20.01912
7.779166	170.9406	20.01776
7.787500	171.1099	20.01648
7.795832	171.2785	20.01513
7.804168	171.4454	20.01375
7.812500	171.6121	20.01239
7.820832	171.7816	20.01102
7.829168	171.9477	20.00964
7.837500	172.1142	20.00836
7.845834	172.2842	20.00712
7.854166	172.4525	20.00590
7.862500	172.6195	20.00461
7.870834	172.7881	20.00324
7.879166	172.9574	20.00194
7.887500	173.1244	20.00065
7.895834	173.2903	19.99934
7.904166	173.4598	19.99803
7.912500	173.6252	19.99674
7.920832	173.7938	19.99541
7.929168	173.9603	19.99403
7.937500	174.1314	19.99264
7.945832	174.2992	19.99125
7.954168	174.4675	19.98981
7.962500	174.6323	19.98836
7.970834	174.8012	19.98694
7.979166	174.9720	19.98557
7.987500	175.1390	19.98423
7.995834	175.3060	19.98288
8.004166	175.4744	19.98154
8.012500	175.6414	19.98017
8.020832	175.8078	19.97878
8.029166	175.9768	19.97743
8.037500	176.1466	19.97616
8.045834	176.3131	19.97490
8.054168	176.4809	19.97364
8.062500	176.6473	19.97230
8.070832	176.8164	19.97092
8.079166	176.9949	19.96952
8.087500	177.1646	19.96806
8.095834	177.3347	19.96663
8.104168	177.4990	19.96530
8.112500	177.6666	19.96396
8.120834	177.8341	19.96259
8.129166	178.0045	19.96117
8.137500	178.1714	19.95974
8.145832	178.3288	19.95838
8.154166	178.4972	19.95704
8.162500	178.6637	19.95574
8.170834	178.8311	19.95447
8.179168	179.0009	19.95322
8.187500	179.1706	19.95193
8.195832	179.3385	19.95059
8.204166	179.5065	19.94926
8.212500	179.6744	19.94794
8.220834	179.8402	19.94660
8.229168	180.0102	19.94523
8.237500	180.1811	19.94387
8.245834	180.3484	19.94250
8.254166	180.5160	19.94112
8.262500	180.6847	19.93975
8.270832	180.8506	19.93834
8.279166	181.0216	19.93692
8.287500	181.1881	19.93554
8.295834	181.3578	19.93420
8.304168	181.5255	19.93289
8.312500	181.6914	19.93156
8.320832	181.8613	19.93021
8.329166	182.0315	19.92887
8.337500	182.1980	19.92753
8.345834	182.3687	19.92616
8.354168	182.5328	19.92476
8.362500	182.7036	19.92339
8.370834	182.8708	19.92198
8.379166	183.0402	19.92059
8.387500	183.2061	19.91920
8.395832	183.3749	19.91771
8.404166	183.5443	19.91621
8.412500	183.7131	19.91476
8.420834	183.8800	19.91331
8.429168	184.0502	19.91190
8.437500	184.2216	19.91054
8.445832	184.3849	19.90918
8.454166	184.5566	19.90784
8.462500	184.7245	19.90645
8.470834	184.8910	19.90502
8.479168	185.0624	19.90366
8.487500	185.2280	19.90235
8.495834	185.3959	19.90101
8.504166	185.5660	19.89966
8.512500	185.7348	19.89828
8.520832	185.9019	19.89690
8.529166	186.0688	19.89551
8.537500	186.2372	19.89410
8.545834	186.4055	19.89271
8.554168	186.5764	19.89136
8.562500	186.7409	19.89004
8.570832	186.9086	19.88867
8.579166	187.0788	19.88730
8.587500	187.2484	19.88591
8.595834	187.4209	19.88454
8.604168	187.5848	19.88314
8.612500	187.7549	19.88171
8.620834	187.9234	19.88030
8.629166	188.0928	19.87888
8.637500	188.2596	19.87748
8.645832	188.4276	19.87609
8.654166	188.5985	19.87468
8.662500	188.7759	19.87324
8.670834	188.9321	19.87180
8.679168	189.1024	19.87032
8.687500	189.2678	19.86882
8.695832	189.4415	19.86737
8.704166	189.6083	19.86598
8.712500	189.7749	19.86459
8.720834	189.9435	19.86310
8.729168	190.1134	19.86155
8.737500	190.2796	19.86004
8.745834	190.4507	19.85857
8.754166	190.6189	19.85714
8.762500	190.7872	19.85574
8.770832	190.9585	19.85437
8.779166	191.1276	19.85298
8.787500	191.2939	19.85154
8.795834	191.4628	19.85011
8.804168	191.6333	19.84875
8.812500	191.7981	19.84742
8.820832	191.9668	19.84609
8.829166	192.1369	19.84476
8.837500	192.3060	19.84339
8.845834	192.4728	19.84200
8.854168	192.6421	19.84065
8.862500	192.8124	19.83926
8.870834	192.9791	19.83784
8.879166	193.1506	19.83638
8.887500	193.3216	19.83492
8.895832	193.4873	19.83349
8.904166	193.6584	19.83201
8.912500	193.8287	19.83052
8.920834	193.9956	19.82905
8.929168	194.1637	19.82756
8.937500	194.3356	19.82608
8.945832	194.5067	19.82465
8.954166	194.6716	19.82319
8.962500	194.8418	19.82172
8.970834	195.0127	19.82026
8.979168	195.1825	19.81884
8.987500	195.3502	19.81744
8.995834	195.5192	19.81603
9.004166	195.6873	19.81461
9.012500	195.8588	19.81320
9.020832	196.0267	19.81172
9.029166	196.1992	19.81021
9.037500	196.3678	19.80879
9.045834	196.5321	19.80739
9.054168	196.7023	19.80597
9.062500	196.8727	19.80449
9.070832	197.0428	19.80298
9.079166	197.2202	19.80149
9.087500	197.3900	19.80002
9.095834	197.5505	19.79854
9.104168	197.7188	19.79710
9.112500	197.8867	19.79568
9.120834	198.0570	19.79419
9.129166	198.2271	19.79267
9.137500	198.3960	19.79116
9.145832	198.5656	19.78966
9.154166	198.7351	19.78814
9.162500	198.9024	19.78662
9.170834	199.0739	19.78511
9.179168	199.2424	19.78363
9.187500	199.4114	19.78213
9.195832	199.5815	19.78060
9.204166	199.7507	19.77906
9.212500	199.9205	19.77756
9.220834	200.0890	19.77608
9.229168	200.2579	19.77458
9.237500	200.4267	19.77311
9.245834	200.5955	19.77162
9.254166	200.7689	19.77006
9.262500	200.9377	19.76852
9.270832	201.1066	19.76696
9.279166	201.2755	19.76541
9.287500	201.4454	19.76392
9.295834	201.6142	19.76240
9.304168	201.7859	19.76088
9.312500	201.9546	19.75935
9.320832	202.1241	19.75781
9.329166	202.2954	19.75626
9.337500	202.4624	19.75472
9.345834	202.6320	19.75314
9.354168	202.7997	19.75160
9.362500	202.9722	19.75009
9.370834	203.1420	19.74854
9.379166	203.3091	19.74700
9.387500	203.4825	19.74543
9.395832	203.6504	19.74384
9.404166	203.8194	19.74227
9.412500	203.9895	19.74072
9.420834	204.1580	19.73920
9.429168	204.3299	19.73770
9.437500	204.4991	19.73618
9.445832	204.6690	19.73463
9.454166	204.8352	19.73305
9.462500	205.0073	19.73145
9.470834	205.1775	19.72984
9.479168	205.3445	19.72825
9.487500	205.5191	19.72664
9.495834	205.6878	19.72503
9.504166	205.8582	19.72339
9.512500	206.0254	19.72170
9.520832	206.1971	19.71998
9.529166	206.3654	19.71827
9.537500	206.5361	19.71656
9.545834	206.7073	19.71488
9.554168	206.8738	19.71325
9.562500	207.0453	19.71160
9.570832	207.2160	19.70996
9.579166	207.3864	19.70827
9.587500	207.5562	19.70658
9.595834	207.7244	19.70495
9.604168	207.8988	19.70336
9.612500	208.0741	19.70176
9.620834	208.2476	19.70017
9.629166	208.4190	19.69857
9.637500	208.5819	19.69689
9.645832	208.7442	19.69522
9.654166	208.9156	19.69357
9.662500	209.0864	19.69194
9.670834	209.2519	19.69030
9.679168	209.4236	19.68860
9.687500	209.5959	19.68687
9.695832	209.7629	19.68513
9.704166	209.9358	19.68337
9.712500	210.1045	19.68161
9.720834	210.2757	19.67988
9.729168	210.4467	19.67817
9.737500	210.6118	19.67638
9.745834	210.7870	19.67460
9.754166	210.9573	19.67285
9.762500	211.1266	19.67111
9.770832	211.2953	19.66930
9.779166	211.4664	19.66746
9.787500	211.6380	19.66565
9.795834	211.8051	19.66381
9.804168	211.9772	19.66201
9.812500	212.1476	19.66024
9.820832	212.3174	19.65848
9.829166	212.4866	19.65669
9.837500	212.6573	19.65486
9.845834	212.8304	19.65302
9.854168	213.0053	19.65125
9.862500	213.1661	19.64947
9.870834	213.3375	19.64766
9.879166	213.5096	19.64585
9.887500	213.6787	19.64404
9.895832	213.8590	19.64214
9.904166	214.0190	19.64016
9.912500	214.1903	19.63813
9.920834	214.3591	19.63614
9.929168	214.5284	19.63415
9.937500	214.6992	19.63220
9.945832	214.8713	19.63029
9.954166	215.0404	19.62838
9.962500	215.2102	19.62644
9.970834	215.3806	19.62437
9.979168	215.5558	19.62232
9.987500	215.7202	19.62040
9.995834	215.8916	19.61853
10.00417	216.0633	19.61662
10.01250	216.2330	19.61469
10.02083	216.4050	19.61271
10.02917	216.5754	19.61066
10.03750	216.7474	19.60860
10.04583	216.9175	19.60651
10.05417	217.0884	19.60440
10.06250	217.2558	19.60233
10.07083	217.4288	19.60026
10.07917	217.5990	19.59818
10.08750	217.7684	19.59609
10.09583	217.9412	19.59400
10.10417	218.1117	19.59184
10.11250	218.2840	19.58965
10.12083	218.4516	19.58745
10.12917	218.6212	19.58532
10.13750	218.7946	19.58324
10.14583	218.9628	19.58108
10.15417	219.1348	19.57887
10.16250	219.3100	19.57663
10.17083	219.4752	19.57430
10.17917	219.6485	19.57195
10.18750	219.8156	19.56964
10.19583	219.9880	19.56734
10.20417	220.1610	19.56502
10.21250	220.3291	19.56266
10.22083	220.5030	19.56028
10.22917	220.6733	19.55788
10.23750	220.8446	19.55542
10.24583	221.0144	19.55294
10.25417	221.1865	19.55047
10.26250	221.3585	19.54796
10.27083	221.5277	19.54534
10.27917	221.6984	19.54269
10.28750	221.8710	19.54009
10.29583	222.0404	19.53744
10.30417	222.2132	19.53468
10.31250	222.3828	19.53188
10.32083	222.5523	19.52907
10.32917	222.7261	19.52623
10.33750	222.8974	19.52338
10.34583	223.0674	19.52052
10.35417	223.2379	19.51768
10.36250	223.4088	19.51479
10.37083	223.5811	19.51175
10.37917	223.7544	19.50868
10.38750	223.9346	19.50567
10.39583	224.1020	19.50263
10.40417	224.2718	19.49951
10.41250	224.4381	19.49636
10.42083	224.6084	19.49316
10.42917	224.7768	19.48992
10.43750	224.9545	19.48664
10.44583	225.1211	19.48338
10.45417	225.2917	19.48008
10.46250	225.4635	19.47667
10.47083	225.6320	19.47318
10.47917	225.8052	19.46967
10.48750	225.9767	19.46613
10.49584	226.1496	19.46252
10.50416	226.3175	19.45888
10.51250	226.4918	19.45517
10.52083	226.6633	19.45144
10.52916	226.8326	19.44764
10.53750	227.0037	19.44378
10.54584	227.1749	19.43990
10.55417	227.3484	19.43604
10.56250	227.5144	19.43209
10.57083	227.6901	19.42809
10.57916	227.8598	19.42406
10.58750	228.0296	19.41994
10.59584	228.2022	19.41580
10.60417	228.3773	19.41162
10.61250	228.5478	19.40738
10.62084	228.7164	19.40312
10.62916	228.8880	19.39888
10.63750	229.0602	19.39456
10.64583	229.2316	19.39019
10.65416	229.3999	19.38579
10.66250	229.5725	19.38134
10.67084	229.7472	19.37684
10.67917	229.9146	19.37227
10.68750	230.0868	19.36763
10.69583	230.2614	19.36295
10.70416	230.4304	19.35822
10.71250	230.5989	19.35342
10.72084	230.7716	19.34858
10.72917	230.9423	19.34369
10.73750	231.1131	19.33872
10.74584	231.2864	19.33374
10.75416	231.4538	19.32873
10.76250	231.6270	19.32369
10.77083	231.7996	19.31860
10.77916	231.9703	19.31348
10.78750	232.1389	19.30830
10.79584	232.3117	19.30304
10.80417	232.4831	19.29773
10.81250	232.6530	19.29236
10.82083	232.8239	19.28694
10.82916	232.9959	19.28149
10.83750	233.1656	19.27601
10.84584	233.3391	19.27048
10.85417	233.5097	19.26490
10.86250	233.6798	19.25926
10.87084	233.8496	19.25362
10.87916	234.0223	19.24793
10.88750	234.1921	19.24220
10.89583	234.3637	19.23644
10.90416	234.5328	19.23065
10.91250	234.7056	19.22478
10.92084	234.8770	19.21885
10.92917	235.0485	19.21287
10.93750	235.2214	19.20682
10.94583	235.3890	19.20072
10.95416	235.5610	19.19454
10.96250	235.7317	19.18834
10.97084	235.9048	19.18206
10.97917	236.0740	19.17574
10.98750	236.2434	19.16938
10.99584	236.4166	19.16296
11.00416	236.5885	19.15643
11.01250	236.7551	19.14984
11.02083	236.9276	19.14328
11.02916	237.1005	19.13668
11.03750	237.2708	19.13002
11.04584	237.4398	19.12330
11.05417	237.6112	19.11650
11.06250	237.7837	19.10966
11.07083	237.9522	19.10276
11.07916	238.1256	19.09587
11.08750	238.2966	19.08895
11.09584	238.4662	19.08197
11.10417	238.6376	19.07486
11.11250	238.8097	19.06770
11.12084	238.9792	19.06049
11.12916	239.1513	19.05324
11.13750	239.3215	19.04595
11.14583	239.4927	19.03859
11.15416	239.6635	19.03114
11.16250	239.8304	19.02363
11.17084	240.0048	19.01605
11.17917	240.1763	19.00845
11.18750	240.3482	19.00080
11.19583	240.5186	18.99301
11.20416	240.6896	18.98517
11.21250	240.8606	18.97732
11.22084	241.0314	18.96942
11.22917	241.2018	18.96141
11.23750	241.3744	18.95335
11.24584	241.5458	18.94529
11.25416	241.7164	18.93718
11.26250	241.8880	18.92900
11.27083	242.0614	18.92080
11.27916	242.2304	18.91261
11.28750	242.4022	18.90433
11.29584	242.5720	18.89590
11.30417	242.7427	18.88748
11.31250	242.9154	18.87906
11.32083	243.0852	18.87056
11.32916	243.2549	18.86198
11.33750	243.4281	18.85334
11.34584	243.5984	18.84464
11.35417	243.7720	18.83584
11.36250	243.9463	18.82697
11.37084	244.1152	18.81807
11.37916	244.2840	18.80914
11.38750	244.4555	18.80014
11.39583	244.6286	18.79110
11.40416	244.7988	18.78200
11.41250	244.9700	18.77284
11.42084	245.1413	18.76360
11.42917	245.3145	18.75433
11.43750	245.4823	18.74500
11.44583	245.6561	18.73565
11.45416	245.8260	18.72626
11.46250	245.9984	18.71678
11.47084	246.1706	18.70723
11.47917	246.3432	18.69758
11.48750	246.5125	18.68783
11.49584	246.6840	18.67803
11.50416	246.8534	18.66820
11.51250	247.0266	18.65833
11.52083	247.1978	18.64842
11.52916	247.3680	18.63846
11.53750	247.5429	18.62848
11.54584	247.7111	18.61844
11.55417	247.8814	18.60834
11.56250	248.0549	18.59823
11.57083	248.2245	18.58811
11.57916	248.4004	18.57794
11.58750	248.5723	18.56769
11.59584	248.7421	18.55736
11.60417	248.9136	18.54701
11.61250	249.0852	18.53656
11.62084	249.2566	18.52604
11.62916	249.4283	18.51550
11.63750	249.5985	18.50491
11.64583	249.7686	18.49428
11.65416	249.9461	18.48361
11.66250	250.1150	18.47286
11.67084	250.2874	18.46208
11.67917	250.4565	18.45127
11.68750	250.6312	18.44041
11.69583	250.8022	18.42953
11.70416	250.9736	18.41860
11.71250	251.1459	18.40759
11.72084	251.3164	18.39657
11.72917	251.4884	18.38548
11.73750	251.6608	18.37435
11.74584	251.8304	18.36320
11.75416	252.0031	18.35201
11.76250	252.1756	18.34076
11.77083	252.3488	18.32945
11.77916	252.5188	18.31812
11.78750	252.6925	18.30678
11.79584	252.8637	18.29538
11.80417	253.0364	18.28391
11.81250	253.2038	18.27241
11.82083	253.3784	18.26089
11.82916	253.5494	18.24934
11.83750	253.7213	18.23775
11.84584	253.8933	18.22609
11.85417	254.0658	18.21442
11.86250	254.2348	18.20268
11.87084	254.4090	18.19086
11.87916	254.5833	18.17909
11.88750	254.7621	18.16732
11.89583	254.9358	18.15553
11.90416	255.1065	18.14368
11.91250	255.2776	18.13177
11.92084	255.4514	18.11984
11.92917	255.6201	18.10791
11.93750	255.7933	18.09594
11.94583	255.9654	18.08395
11.95416	256.1316	18.07196
11.96250	256.3006	18.05994
11.97084	256.4708	18.04781
11.97917	256.6428	18.03566
11.98750	256.8153	18.02353
11.99584	256.9858	18.01142
12.00416	257.1602	17.99930
12.01250	257.3314	17.98712
12.02083	257.5017	17.97490
12.02916	257.6739	17.96273
12.03750	257.8450	17.95049
12.04584	258.0188	17.93819
12.05417	258.1908	17.92593
12.06250	258.3616	17.91364
12.07083	258.5336	17.90133
12.07916	258.7031	17.88900
12.08750	258.8774	17.87664
12.09584	259.0492	17.86427
12.10417	259.2200	17.85191
12.11250	259.3925	17.83952
12.12084	259.5623	17.82712
12.12916	259.7330	17.81471
12.13750	259.9088	17.80228
12.14583	260.0774	17.78986
12.15416	260.2466	17.77741
12.16250	260.4212	17.76496
12.17084	260.5929	17.75250
12.17917	260.7647	17.74006
12.18750	260.9387	17.72762
12.19583	261.1074	17.71515
12.20416	261.2785	17.70268
12.21250	261.4515	17.69023
12.22084	261.6197	17.67778
12.22917	261.7957	17.66532
12.23750	261.9670	17.65283
12.24584	262.1375	17.64033
12.25416	262.3088	17.62785
12.26250	262.4794	17.61535
12.27083	262.6516	17.60284
12.27916	262.8204	17.59032
12.28750	262.9938	17.57779
12.29584	263.1640	17.56528
12.30417	263.3352	17.55280
12.31250	263.5055	17.54028
12.32083	263.6818	17.52778
12.32916	263.8570	17.51530
12.33750	264.0270	17.50279
12.34584	264.1969	17.49030
12.35417	264.3699	17.47780
12.36250	264.5402	17.46526
12.37084	264.7087	17.45281
12.37916	264.8806	17.44032
12.38750	265.0533	17.42782
12.39583	265.2236	17.41538
12.40416	265.3925	17.40295
12.41250	265.5656	17.39049
12.42084	265.7354	17.37805
12.42917	265.9048	17.36565
12.43750	266.0684	17.35328
12.44583	266.2357	17.34097
12.45416	266.4095	17.32859
12.46250	266.5799	17.31624
12.47084	266.7509	17.30390
12.47917	266.9186	17.29155
12.48750	267.0905	17.27919
12.49584	267.2602	17.26688
12.50416	267.4308	17.25460
12.51250	267.5996	17.24226
12.52083	267.7717	17.22991
12.52916	267.9410	17.21759
12.53750	268.1100	17.20532
12.54584	268.2850	17.19307
12.55417	268.4524	17.18080
12.56250	268.6222	17.16858
12.57083	268.7936	17.15635
12.57916	268.9628	17.14411
12.58750	269.1388	17.13188
12.59584	269.3027	17.11973
12.60417	269.4727	17.10758
12.61250	269.6422	17.09543
12.62084	269.8110	17.08330
12.62916	269.9812	17.07116
12.63750	270.1497	17.05903
12.64583	270.3212	17.04693
12.65416	270.4896	17.03483
12.66250	270.6597	17.02278
12.67084	270.8272	17.01075
12.67917	270.9985	16.99871
12.68750	271.1690	16.98673
12.69583	271.3397	16.97477
12.70416	271.5091	16.96281
12.71250	271.6742	16.95088
12.72084	271.8478	16.93899
12.72917	272.0147	16.92711
12.73750	272.1858	16.91525
12.74584	272.3520	16.90338
12.75416	272.5199	16.89155
12.76250	272.6902	16.87972
12.77083	272.8609	16.86792
12.77916	273.0293	16.85614
12.78750	273.1982	16.84437
12.79584	273.3664	16.83262
12.80417	273.5366	16.82089
12.81250	273.7054	16.80918
12.82083	273.8762	16.79748
12.82916	274.0440	16.78579
12.83750	274.2110	16.77412
12.84584	274.3810	16.76248
12.85417	274.5522	16.75080
12.86250	274.7206	16.73916
12.87083	274.8882	16.72759
12.87917	275.0570	16.71606
12.88750	275.2244	16.70456
12.89583	275.3942	16.69306
12.90416	275.5635	16.68160
12.91250	275.7312	16.67019
12.92084	275.9028	16.65878
12.92917	276.0742	16.64739
12.93750	276.2390	16.63609
12.94583	276.4064	16.62474
12.95416	276.5744	16.61340
12.96250	276.7510	16.60208
12.97084	276.9181	16.59076
12.97917	277.0810	16.57948
12.98750	277.2452	16.56822
12.99583	277.4149	16.55700
13.00417	277.5831	16.54580
13.01250	277.7497	16.53461
13.02083	277.9204	16.52341
13.02916	278.0884	16.51230
13.03750	278.2558	16.50124
13.04584	278.4250	16.49019
13.05417	278.5916	16.47917
13.06250	278.7586	16.46818
13.07083	278.9287	16.45720
13.07916	279.0935	16.44624
13.08750	279.2628	16.43533
13.09584	279.4319	16.42444
13.10417	279.5978	16.41359
13.11250	279.7656	16.40274
13.12083	279.9341	16.39188
13.12917	280.1023	16.38107
13.13750	280.2716	16.37029
13.14583	280.4375	16.35951
13.15416	280.6046	16.34878
13.16250	280.7718	16.33812
13.17084	280.9405	16.32744
13.17917	281.1179	16.31675
13.18750	281.2848	16.30604
13.19583	281.4549	16.29541
13.20416	281.6208	16.28480
13.21250	281.7889	16.27424
13.22084	281.9572	16.26369
13.22917	282.1186	16.25318
13.23750	282.2826	16.24271
13.24583	282.4493	16.23224
13.25417	282.6144	16.22178
13.26250	282.7815	16.21139
13.27083	282.9496	16.20108
13.27916	283.1141	16.19076
13.28750	283.2847	16.18046
13.29584	283.4494	16.17012
13.30417	283.6176	16.15985
13.31250	283.7859	16.14958
13.32083	283.9518	16.13935
13.32916	284.1199	16.12916
13.33750	284.2876	16.11902
13.34584	284.4580	16.10890
13.35417	284.6301	16.09879
13.36250	284.7880	16.08869
13.37083	284.9550	16.07859
13.37917	285.1217	16.06855
13.38750	285.2877	16.05853
13.39583	285.4568	16.04855
13.40416	285.6243	16.03858
13.41250	285.7917	16.02863
13.42084	285.9569	16.01872
13.42917	286.1263	16.00886
13.43750	286.2920	15.99901
13.44583	286.4596	15.98919
13.45416	286.6240	15.97942
13.46250	286.7919	15.96968
13.47084	286.9611	15.95994
13.47917	287.1263	15.95020
13.48750	287.2941	15.94051
13.49583	287.4587	15.93082
13.50417	287.6260	15.92116
13.51250	287.7922	15.91152
13.52083	287.9577	15.90193
13.52916	288.1274	15.89236
13.53750	288.2909	15.88282
13.54584	288.4588	15.87330
13.55417	288.6260	15.86382
13.56250	288.7945	15.85436
13.57083	288.9577	15.84493
13.57916	289.1238	15.83556
13.58750	289.2914	15.82620
13.59584	289.4583	15.81686
13.60417	289.6256	15.80752
13.61250	289.7912	15.79822
13.62083	289.9547	15.78897
13.62917	290.1263	15.77972
13.63750	290.2874	15.77049
13.64583	290.4591	15.76132
13.65416	290.6232	15.75216
13.66250	290.7893	15.74299
13.67084	290.9545	15.73385
13.67917	291.1230	15.72474
13.68750	291.2883	15.71565
13.69583	291.4557	15.70662
13.70416	291.6224	15.69761
13.71250	291.7890	15.68861
13.72084	291.9538	15.67966
13.72917	292.1306	15.67071
13.73750	292.2944	15.66181
13.74583	292.4559	15.65298
13.75417	292.6189	15.64418
13.76250	292.7852	15.63541
13.77083	292.9502	15.62666
13.77916	293.1135	15.61790
13.78750	293.2850	15.60918
13.79584	293.4493	15.60051
13.80417	293.6190	15.59185
13.81250	293.7838	15.58319
13.82083	293.9495	15.57457
13.82916	294.1140	15.56594
13.83750	294.2825	15.55733
13.84584	294.4470	15.54876
13.85417	294.6118	15.54024
13.86250	294.7806	15.53175
13.87083	294.9450	15.52325
13.87917	295.1118	15.51478
13.88750	295.2786	15.50632
13.89583	295.4530	15.49793
13.90416	295.6211	15.48954
13.91250	295.7865	15.48118
13.92084	295.9522	15.47282
13.92917	296.1138	15.46448
13.93750	296.2746	15.45615
13.94583	296.4431	15.44787
13.95416	296.6063	15.43963
13.96250	296.7740	15.43142
13.97084	296.9409	15.42321
13.97917	297.1050	15.41501
13.98750	297.2735	15.40687
13.99583	297.4483	15.39880
14.00417	297.6130	15.39079
14.01250	297.7787	15.38278
14.02083	297.9424	15.37478
14.02916	298.1128	15.36679
14.03750	298.2773	15.35882
14.04584	298.4330	15.35088
14.05417	298.6002	15.34302
14.06250	298.7654	15.33517
14.07083	298.9314	15.32730
14.07916	299.0989	15.31941
14.08750	299.2642	15.31151
14.09584	299.4306	15.30364
14.10417	299.5972	15.29582
14.11250	299.7615	15.28804
14.12083	299.9290	15.28026
14.12917	300.0948	15.27249
14.13750	300.2620	15.26474
14.14583	300.4286	15.25701
14.15416	300.5947	15.24930
14.16250	300.7610	15.24161
14.17084	300.9278	15.23399
14.17917	301.0936	15.22634
14.18750	301.2604	15.21871
14.19583	301.4247	15.21112
14.20416	301.5898	15.20356
14.21250	301.7561	15.19601
14.22084	301.9213	15.18848
14.22917	302.0876	15.18097
14.23750	302.2538	15.17347
14.24583	302.4200	15.16598
14.25417	302.5879	15.15849
14.26250	302.7524	15.15108
14.27083	302.9205	15.14372
14.27916	303.0924	15.13635
14.28750	303.2603	15.12898
14.29584	303.4263	15.12164
14.30417	303.5888	15.11431
14.31250	303.7540	15.10698
14.32083	303.9189	15.09969
14.32916	304.0870	15.09245
14.33750	304.2512	15.08522
14.34584	304.4176	15.07797
14.35417	304.5850	15.07071
14.36250	304.7501	15.06348
14.37083	304.9162	15.05626
14.37917	305.0834	15.04903
14.38750	305.2488	15.04185
14.39583	305.4150	15.03468
14.40416	305.5822	15.02751
14.41250	305.7510	15.02033
14.42084	305.9146	15.01318
14.42917	306.0818	15.00610
14.43750	306.2478	14.99904
14.44583	306.4140	14.99195
14.45416	306.5794	14.98489
14.46250	306.7473	14.97789
14.47084	306.9170	14.97087
14.47917	307.0893	14.96389
14.48750	307.2527	14.95696
14.49583	307.4230	14.95004
14.50417	307.5855	14.94310
14.51250	307.7449	14.93614
14.52083	307.9080	14.92916
14.52916	308.0760	14.92223
14.53750	308.2440	14.91536
14.54584	308.4114	14.90849
14.55417	308.5763	14.90160
14.56250	308.7430	14.89472
14.57083	308.9104	14.88783
14.57916	309.0740	14.88098
14.58750	309.2422	14.87413
14.59584	309.4067	14.86728
14.60417	309.5752	14.86045
14.61250	309.7417	14.85365
14.62083	309.9088	14.84681
14.62917	310.0735	14.83997
14.63750	310.2424	14.83317
14.64583	310.4080	14.82640
14.65416	310.5760	14.81961
14.66250	310.7399	14.81280
14.67084	310.9063	14.80601
14.67917	311.0751	14.79929
14.68750	311.2369	14.79256
14.69583	311.4055	14.78581
14.70416	311.5798	14.77907
14.71250	311.7467	14.77236
14.72084	311.9152	14.76565
14.72917	312.0790	14.75894
14.73750	312.2460	14.75221
14.74583	312.4100	14.74550
14.75417	312.5721	14.73882
14.76250	312.7378	14.73211
14.77083	312.9058	14.72542
14.77916	313.0726	14.71879
14.78750	313.2359	14.71212
14.79584	313.4027	14.70549
14.80417	313.5708	14.69886
14.81250	313.7412	14.69219
14.82083	313.9074	14.68556
14.82916	314.0726	14.67895
14.83750	314.2394	14.67232
14.84584	314.4065	14.66568
14.85417	314.5713	14.65905
14.86250	314.7387	14.65239
14.87083	314.9062	14.64576
14.87917	315.0716	14.63911
14.88750	315.2398	14.63245
14.89583	315.4076	14.62580
14.90416	315.5701	14.61918
14.91250	315.7434	14.61253
14.92084	315.9078	14.60591
14.92917	316.0720	14.59929
14.93750	316.2382	14.59266
14.94583	316.4100	14.58604
14.95416	316.5803	14.57942
14.96250	316.7377	14.57280
14.97084	316.9072	14.56618
14.97917	317.0724	14.55958
14.98750	317.2393	14.55291
14.99583	317.4052	14.54628
15.00417	317.5728	14.53961
15.01250	317.7385	14.53292
15.02083	317.9067	14.52628
15.02916	318.0752	14.51963
15.03750	318.2410	14.51294
15.04584	318.4082	14.50624
15.05417	318.5734	14.49960
15.06250	318.7414	14.49297
15.07083	318.9072	14.48635
15.07916	319.0744	14.47971
15.08750	319.2420	14.47306
15.09584	319.4081	14.46641
15.10417	319.5750	14.45975
15.11250	319.7418	14.45306
15.12083	319.9088	14.44638
15.12917	320.0767	14.43972
15.13750	320.2435	14.43303
15.14583	320.4100	14.42633
15.15416	320.5768	14.41964
15.16250	320.7422	14.41292
15.17084	320.9114	14.40622
15.17917	321.0770	14.39952
15.18750	321.2440	14.39280
15.19583	321.4116	14.38608
15.20416	321.5800	14.37936
15.21250	321.7460	14.37260
15.22084	321.9124	14.36577
15.22917	322.0784	14.35896
15.23750	322.2466	14.35214
15.24583	322.4118	14.34534
15.25417	322.5786	14.33853
15.26250	322.7486	14.33168
15.27083	322.9148	14.32479
15.27916	323.0825	14.31790
15.28750	323.2524	14.31104
15.29584	323.4188	14.30418
15.30417	323.5869	14.29732
15.31250	323.7536	14.29046
15.32083	323.9194	14.28357
15.32916	324.0852	14.27666
15.33750	324.2545	14.26972
15.34584	324.4263	14.26278
15.35417	324.5888	14.25587
15.36250	324.7540	14.24894
15.37083	324.9213	14.24194
15.37917	325.0867	14.23492
15.38750	325.2580	14.22792
15.39583	325.4247	14.22091
15.40416	325.5922	14.21383
15.41250	325.7589	14.20674
15.42084	325.9260	14.19969
15.42917	326.0918	14.19260
15.43750	326.2584	14.18549
15.44583	326.4252	14.17834
15.45416	326.5948	14.17123
15.46250	326.7616	14.16408
15.47084	326.9300	14.15684
15.47917	327.0968	14.14958
15.48750	327.2622	14.14238
15.49583	327.4312	14.13516
15.50417	327.5980	14.12788
15.51250	327.7658	14.12057
15.52083	327.9328	14.11324
15.52916	328.0993	14.10591
15.53750	328.2664	14.09854
15.54584	328.4397	14.09117
15.55417	328.6101	14.08382
15.56250	328.7702	14.07646
15.57083	328.9369	14.06904
15.57916	329.1042	14.06156
15.58750	329.2754	14.05410
15.59584	329.4400	14.04666
15.60417	329.6076	14.03920
15.61250	329.7726	14.03167
15.62083	329.9420	14.02410
15.62917	330.1081	14.01650
15.63750	330.2762	14.00886
15.64583	330.4434	14.00120
15.65416	330.6125	13.99353
15.66250	330.7790	13.98588
15.67084	330.9467	13.97817
15.67917	331.1162	13.97040
15.68750	331.2836	13.96261
15.69583	331.4483	13.95482
15.70416	331.6171	13.94702
15.71250	331.7851	13.93920
15.72084	331.9532	13.93134
15.72917	332.1200	13.92344
15.73750	332.2883	13.91548
15.74583	332.4552	13.90750
15.75417	332.6230	13.89956
15.76250	332.7918	13.89161
15.77083	332.9587	13.88364
15.77916	333.1266	13.87559
15.78750	333.2956	13.86750
15.79584	333.4633	13.85937
15.80417	333.6286	13.85124
15.81250	333.7959	13.84310
15.82083	333.9669	13.83494
15.82916	334.1339	13.82674
15.83750	334.2990	13.81844
15.84584	334.4694	13.81008
15.85417	334.6339	13.80169
15.86250	334.8022	13.79331
15.87083	334.9702	13.78490
15.87917	335.1364	13.77648
15.88750	335.3062	13.76800
15.89583	335.4742	13.75947
15.90416	335.6414	13.75092
15.91250	335.8091	13.74236
15.92084	335.9783	13.73376
15.92917	336.1447	13.72514
15.93750	336.3155	13.71648
15.94583	336.4806	13.70779
15.95416	336.6497	13.69908
15.96250	336.8159	13.69033
15.97084	336.9851	13.68153
15.97917	337.1519	13.67267
15.98750	337.3219	13.66376
15.99583	337.4883	13.65482
16.00417	337.6548	13.64582
16.01250	337.8234	13.63680
16.02084	337.9898	13.62775
16.02917	338.1600	13.61866
16.03750	338.3272	13.60958
16.04584	338.4956	13.60044
16.05417	338.6637	13.59124
16.06250	338.8322	13.58204
16.07083	338.9990	13.57279
16.07916	339.1692	13.56349
16.08750	339.3364	13.55420
16.09583	339.5056	13.54486
16.10416	339.6732	13.53547
16.11250	339.8382	13.52602
16.12083	340.0052	13.51652
16.12917	340.1755	13.50701
16.13750	340.3426	13.49750
16.14584	340.5106	13.48794
16.15417	340.6774	13.47834
16.16250	340.8478	13.46869
16.17084	341.0137	13.45899
16.17917	341.1820	13.44926
16.18750	341.3506	13.43949
16.19583	341.5186	13.42970
16.20416	341.6956	13.41986
16.21250	341.8610	13.40996
16.22083	342.0220	13.40003
16.22916	342.1909	13.39006
16.23750	342.3594	13.38010
16.24583	342.5296	13.37012
16.25417	342.6946	13.36010
16.26250	342.8630	13.35002
16.27084	343.0320	13.33991
16.27917	343.1993	13.32975
16.28750	343.3696	13.31956
16.29584	343.5350	13.30936
16.30417	343.7038	13.29914
16.31250	343.8723	13.28884
16.32083	344.0392	13.27849
16.32916	344.2098	13.26811
16.33750	344.3761	13.25771
16.34583	344.5416	13.24730
16.35416	344.7084	13.23684
16.36250	344.8824	13.22637
16.37083	345.0474	13.21588
16.37917	345.2165	13.20533
16.38750	345.3850	13.19473
16.39584	345.5513	13.18414
16.40417	345.7213	13.17355
16.41250	345.8903	13.16292
16.42084	346.0575	13.15225
16.42917	346.2261	13.14156
16.43750	346.3922	13.13086
16.44583	346.5606	13.12013
16.45416	346.7276	13.10935
16.46250	346.8948	13.09858
16.47083	347.0666	13.08784
16.47916	347.2334	13.07705
16.48750	347.4018	13.06618
16.49583	347.5712	13.05528
16.50417	347.7385	13.04441
16.51250	347.9050	13.03351
16.52084	348.0737	13.02257
16.52917	348.2418	13.01162
16.53750	348.4112	13.00067
16.54584	348.5813	12.98970
16.55417	348.7490	12.97868
16.56250	348.9142	12.96768
16.57083	349.0858	12.95670
16.57916	349.2519	12.94569
16.58750	349.4220	12.93465
16.59583	349.5866	12.92360
16.60416	349.7554	12.91256
16.61250	349.9246	12.90152
16.62083	350.0946	12.89044
16.62917	350.2662	12.87937
16.63750	350.4272	12.86830
16.64584	350.5958	12.85723
16.65417	350.7640	12.84618
16.66250	350.9328	12.83513
16.67084	351.1029	12.82407
16.67917	351.2735	12.81298
16.68750	351.4383	12.80192
16.69583	351.6153	12.79088
16.70416	351.7831	12.77986
16.71250	351.9410	12.76884
16.72083	352.1090	12.75782
16.72916	352.2759	12.74682
16.73750	352.4438	12.73580
16.74583	352.6113	12.72479
16.75417	352.7798	12.71383
16.76250	352.9494	12.70290
16.77084	353.1150	12.69196
16.77917	353.2828	12.68101
16.78750	353.4525	12.67009
16.79584	353.6198	12.65922
16.80417	353.7870	12.64832
16.81250	353.9531	12.63742
16.82083	354.1223	12.62657
16.82916	354.2908	12.61573
16.83750	354.4588	12.60491
16.84583	354.6272	12.59415
16.85416	354.7908	12.58341
16.86250	354.9620	12.57267
16.87083	355.1291	12.56199
16.87917	355.2956	12.55133
16.88750	355.4656	12.54075
16.89584	355.6367	12.53022
16.90417	355.8110	12.51972
16.91250	355.9782	12.50930
16.92084	356.1450	12.49890
16.92917	356.3124	12.48850
16.93750	356.4809	12.47814
16.94583	356.6482	12.46787
16.95416	356.8150	12.45758
16.96250	356.9810	12.44737
16.97083	357.1500	12.43723
16.97916	357.3100	12.42710
16.98750	357.4766	12.41701
16.99583	357.6419	12.40692
17.00417	357.8106	12.39692
17.01250	357.9768	12.38699
17.02084	358.1433	12.37711
17.02917	358.3110	12.36727
17.03750	358.4789	12.35751
17.04584	358.6473	12.34778
17.05417	358.8162	12.33806
17.06250	358.9819	12.32841
17.07083	359.1508	12.31881
17.07916	359.3156	12.30928
17.08750	359.4826	12.29978
17.09583	359.6611	12.29033
17.10416	359.8256	12.28097
17.11250	359.9914	12.27167
17.12083	360.1606	12.26239
17.12917	360.3270	12.25317
17.13750	360.4950	12.24405
17.14584	360.6522	12.23495
17.15417	360.8204	12.22590
17.16250	360.9860	12.21692
17.17084	361.1610	12.20804
17.17917	361.3223	12.19922
17.18750	361.4865	12.19045
17.19583	361.6506	12.18173
17.20416	361.8226	12.17310
17.21250	361.9952	12.16452
17.22083	362.1618	12.15600
17.22916	362.3291	12.14756
17.23750	362.4870	12.13920
17.24583	362.6530	12.13088
17.25417	362.8195	12.12264
17.26250	362.9867	12.11449
17.27084	363.1586	12.10640
17.27917	363.3250	12.09840
17.28750	363.4850	12.09045
17.29584	363.6498	12.08258
17.30417	363.8175	12.07476
17.31250	363.9839	12.06704
17.32083	364.1503	12.05938
17.32916	364.3144	12.05178
17.33750	364.4824	12.04426
17.34583	364.6464	12.03676
17.35416	364.8166	12.02930
17.36250	364.9885	12.02194
17.37083	365.1536	12.01468
17.37917	365.3217	12.00748
17.38750	365.4847	12.00032
17.39584	365.6522	11.99324
17.40417	365.8089	11.98622
17.41250	365.9756	11.97930
17.42084	366.1426	11.97243
17.42917	366.3090	11.96560
17.43750	366.4752	11.95886
17.44583	366.6394	11.95215
17.45416	366.8092	11.94548
17.46250	366.9711	11.93890
17.47083	367.1390	11.93238
17.47916	367.3023	11.92593
17.48750	367.4695	11.91953
17.49583	367.6356	11.91314
17.50417	367.8023	11.90684
17.51250	367.9668	11.90066
17.52084	368.1338	11.89449
17.52917	368.2993	11.88842
17.53750	368.4647	11.88239
17.54584	368.6305	11.87640
17.55417	368.7969	11.87046
17.56250	368.9630	11.86460
17.57083	369.1267	11.85884
17.57916	369.2942	11.85313
17.58750	369.4597	11.84739
17.59583	369.6270	11.84169
17.60416	369.7925	11.83615
17.61250	369.9562	11.83066
17.62083	370.1228	11.82518
17.62917	370.2874	11.81976
17.63750	370.4592	11.81443
17.64584	370.6286	11.80910
17.65417	370.7950	11.80382
17.66250	370.9514	11.79860
17.67084	371.1140	11.79346
17.67917	371.2806	11.78837
17.68750	371.4458	11.78326
17.69583	371.6130	11.77817
17.70416	371.7772	11.77316
17.71250	371.9490	11.76821
17.72083	372.1156	11.76327
17.72916	372.2798	11.75835
17.73750	372.4386	11.75350
17.74583	372.6032	11.74872
17.75417	372.7700	11.74398
17.76250	372.9348	11.73926
17.77084	373.1010	11.73459
17.77917	373.2694	11.72999
17.78750	373.4314	11.72542
17.79584	373.5958	11.72085
17.80417	373.7625	11.71638
17.81250	373.9266	11.71197
17.82083	374.0935	11.70754
17.82916	374.2584	11.70317
17.83750	374.4240	11.69883
17.84583	374.5884	11.69453
17.85416	374.7553	11.69022
17.86250	374.9210	11.68590
17.87083	375.0830	11.68163
17.87917	375.2486	11.67741
17.88750	375.4174	11.67319
17.89584	375.5810	11.66901
17.90417	375.7525	11.66489
17.91250	375.9195	11.66075
17.92084	376.0825	11.65664
17.92917	376.2488	11.65259
17.93750	376.4144	11.64859
17.94583	376.5789	11.64462
17.95416	376.7438	11.64063
17.96250	376.9027	11.63668
17.97083	377.0640	11.63274
17.97916	377.2310	11.62879
17.98750	377.3957	11.62488
17.99583	377.5603	11.62100
18.00417	377.7248	11.61714
18.01250	377.8870	11.61329
18.02084	378.0537	11.60946
18.02917	378.2184	11.60564
18.03750	378.3854	11.60188
18.04584	378.5532	11.59810
18.05417	378.7145	11.59430
18.06250	378.8794	11.59056
18.07083	379.0471	11.58683
18.07916	379.2119	11.58313
18.08750	379.3789	11.57946
18.09583	379.5428	11.57577
18.10416	379.7064	11.57210
18.11250	379.8724	11.56844
18.12083	380.0359	11.56479
18.12917	380.2010	11.56121
18.13750	380.3680	11.55766
18.14584	380.5338	11.55408
18.15417	380.6995	11.55051
18.16250	380.8643	11.54692
18.17084	381.0374	11.54332
18.17917	381.2031	11.53978
18.18750	381.3679	11.53627
18.19583	381.5331	11.53278
18.20416	381.6964	11.52928
18.21250	381.8555	11.52575
18.22083	382.0213	11.52226
18.22916	382.1860	11.51880
18.23750	382.3518	11.51536
18.24583	382.5164	11.51186
18.25417	382.6836	11.50836
18.26250	382.8574	11.50488
18.27084	383.0216	11.50137
18.27917	383.1852	11.49790
18.28750	383.3513	11.49444
18.29584	383.5090	11.49099
18.30417	383.6750	11.48754
18.31250	383.8374	11.48406
18.32083	384.0025	11.48058
18.32916	384.1682	11.47718
18.33750	384.3366	11.47381
18.34583	384.5018	11.47045
18.35416	384.6678	11.46710
18.36250	384.8340	11.46374
18.37083	384.9986	11.46042
18.37917	385.1736	11.45711
18.38750	385.3374	11.45381
18.39584	385.4946	11.45049
18.40417	385.6620	11.44719
18.41250	385.8272	11.44389
18.42084	385.9924	11.44058
18.42917	386.1592	11.43727
18.43750	386.3226	11.43396
18.44583	386.4903	11.43066
18.45416	386.6547	11.42735
18.46250	386.8211	11.42401
18.47083	386.9874	11.42071
18.47916	387.1582	11.41742
18.48750	387.3280	11.41412
18.49583	387.4895	11.41082
18.50417	387.6490	11.40750
18.51250	387.8155	11.40420
18.52084	387.9813	11.40091
18.52917	388.1470	11.39763
18.53750	388.3149	11.39436
18.54584	388.4800	11.39114
18.55417	388.6468	11.38788
18.56250	388.8084	11.38462
18.57083	388.9763	11.38137
18.57916	389.1428	11.37814
18.58750	389.3086	11.37491
18.59583	389.4757	11.37165
18.60416	389.6480	11.36843
18.61250	389.8127	11.36519
18.62083	389.9780	11.36194
18.62917	390.1436	11.35866
18.63750	390.3128	11.35543
18.64584	390.4718	11.35222
18.65417	390.6350	11.34902
18.66250	390.7985	11.34582
18.67084	390.9655	11.34262
18.67917	391.1326	11.33942
18.68750	391.2980	11.33620
18.69583	391.4653	11.33300
18.70416	391.6345	11.32978
18.71250	391.7961	11.32660
18.72083	391.9641	11.32338
18.72916	392.1344	11.32014
18.73750	392.3040	11.31692
18.74583	392.4702	11.31370
18.75417	392.6362	11.31050
18.76250	392.7954	11.30730
18.77084	392.9607	11.30411
18.77917	393.1253	11.30094
18.78750	393.2913	11.29778
18.79584	393.4567	11.29460
18.80417	393.6235	11.29146
18.81250	393.7912	11.28831
18.82083	393.9570	11.28514
18.82916	394.1230	11.28196
18.83750	394.2907	11.27876
18.84583	394.4558	11.27560
18.85416	394.6210	11.27241
18.86250	394.7880	11.26924
18.87083	394.9544	11.26608
18.87917	395.1200	11.26288
18.88750	395.2866	11.25972
18.89584	395.4506	11.25659
18.90417	395.6200	11.25347
18.91250	395.7844	11.25035
18.92084	395.9525	11.24724
18.92917	396.1188	11.24414
18.93750	396.2854	11.24104
18.94583	396.4514	11.23794
18.95416	396.6169	11.23484
18.96250	396.7862	11.23176
18.97083	396.9513	11.22862
18.97916	397.1162	11.22548
18.98750	397.2854	11.22234
18.99583	397.4526	11.21918
19.00417	397.6186	11.21604
19.01250	397.7840	11.21289
19.02084	397.9524	11.20972
19.02917	398.1170	11.20657
19.03750	398.2840	11.20340
19.04584	398.4504	11.20026
19.05417	398.6190	11.19714
19.06250	398.7864	11.19401
19.07083	398.9527	11.19083
19.07916	399.1184	11.18768
19.08750	399.2870	11.18456
19.09583	399.4553	11.18141
19.10416	399.6200	11.17826
19.11250	399.7858	11.17510
19.12083	399.9536	11.17197
19.12917	400.1192	11.16883
19.13750	400.2889	11.16566
19.14584	400.4544	11.16254
19.15417	400.6212	11.15948
19.16250	400.7876	11.15643
19.17084	400.9560	11.15333
19.17917	401.1208	11.15027
19.18750	401.2910	11.14720
19.19583	401.4547	11.14414
19.20416	401.6225	11.14105
19.21250	401.7903	11.13796
19.22083	401.9563	11.13490
19.22916	402.1255	11.13179
19.23750	402.2902	11.12867
19.24583	402.4578	11.12556
19.25417	402.6260	11.12250
19.26250	402.7906	11.11942
19.27084	402.9588	11.11634
19.27917	403.1266	11.11325
19.28750	403.2906	11.11020
19.29584	403.4586	11.10715
19.30417	403.6257	11.10406
19.31250	403.7900	11.10101
19.32083	403.9580	11.09793
19.32916	404.1248	11.09484
19.33750	404.2933	11.09172
19.34583	404.4629	11.08860
19.35416	404.6278	11.08550
19.36250	404.7959	11.08242
19.37083	404.9612	11.07931
19.37917	405.1296	11.07623
19.38750	405.2960	11.07315
19.39584	405.4633	11.07009
19.40417	405.6310	11.06706
19.41250	405.7994	11.06401
19.42084	405.9616	11.06095
19.42917	406.1301	11.05793
19.43750	406.3042	11.05494
19.44583	406.4735	11.05194
19.45416	406.6385	11.04889
19.46250	406.8083	11.04581
19.47083	406.9728	11.04272
19.47916	407.1406	11.03963
19.48750	407.3082	11.03655
19.49583	407.4745	11.03350
19.50417	407.6347	11.03046
19.51250	407.8004	11.02741
19.52084	407.9679	11.02432
19.52917	408.1350	11.02120
19.53750	408.3024	11.01815
19.54584	408.4697	11.01514
19.55417	408.6355	11.01213
19.56250	408.8021	11.00912
19.57083	408.9674	11.00608
19.57916	409.1363	11.00301
19.58750	409.3011	10.99994
19.59583	409.4672	10.99687
19.60416	409.6364	10.99382
19.61250	409.8058	10.99081
19.62083	409.9710	10.98779
19.62917	410.1369	10.98475
19.63750	410.3020	10.98173
19.64584	410.4712	10.97874
19.65417	410.6374	10.97577
19.66250	410.8062	10.97278
19.67084	410.9744	10.96976
19.67917	411.1404	10.96672
19.68750	411.3108	10.96367
19.69583	411.4734	10.96064
19.70416	411.6410	10.95759
19.71250	411.8085	10.95451
19.72083	411.9752	10.95146
19.72916	412.1432	10.94840
19.73750	412.3086	10.94530
19.74583	412.4762	10.94224
19.75417	412.6441	10.93920
19.76250	412.8122	10.93620
19.77084	412.9791	10.93316
19.77917	413.1457	10.93013
19.78750	413.3133	10.92713
19.79584	413.4783	10.92414
19.80417	413.6470	10.92112
19.81250	413.8134	10.91810
19.82083	413.9830	10.91510
19.82916	414.1469	10.91212
19.83750	414.3148	10.90915
19.84583	414.4812	10.90612
19.85416	414.6479	10.90312
19.86250	414.8160	10.90006
19.87083	414.9828	10.89698
19.87917	415.1525	10.89396
19.88750	415.3190	10.89093
19.89584	415.4859	10.88790
19.90417	415.6496	10.88489
19.91250	415.8192	10.88188
19.92084	415.9857	10.87887
19.92917	416.1562	10.87589
19.93750	416.3231	10.87289
19.94583	416.4880	10.86992
19.95416	416.6564	10.86697
19.96250	416.8265	10.86397
19.97083	416.9912	10.86100
19.97916	417.1672	10.85803
19.98750	417.3307	10.85504
19.99583	417.4938	10.85203
20.00417	417.6633	10.84899
20.01250	417.8295	10.84598
20.02084	417.9970	10.84297
20.02917	418.1641	10.83996
20.03750	418.3311	10.83696
20.04584	418.4969	10.83395
20.05417	418.6648	10.83095
20.06250	418.8317	10.82799
20.07083	418.9966	10.82503
20.07916	419.1666	10.82206
20.08750	419.3325	10.81912
20.09583	419.4988	10.81614
20.10416	419.6684	10.81315
20.11250	419.8330	10.81020
20.12083	420.0016	10.80725
20.12917	420.1674	10.80428
20.13750	420.3336	10.80132
20.14584	420.4990	10.79828
20.15417	420.6711	10.79525
20.16250	420.8355	10.79232
20.17084	421.0010	10.78938
20.17917	421.1697	10.78644
20.18750	421.3363	10.78351
20.19583	421.5037	10.78055
20.20416	421.6694	10.77760
20.21250	421.8372	10.77467
20.22083	422.0064	10.77170
20.22916	422.1722	10.76877
20.23750	422.3387	10.76584
20.24583	422.5079	10.76283
20.25417	422.6734	10.75980
20.26250	422.8394	10.75680
20.27084	423.0047	10.75382
20.27917	423.1729	10.75083
20.28750	423.3402	10.74786
20.29584	423.5068	10.74491
20.30417	423.6740	10.74194
20.31250	423.8406	10.73899
20.32083	424.0074	10.73606
20.32916	424.1732	10.73312
20.33750	424.3420	10.73021
20.34583	424.5076	10.72729
20.35416	424.6756	10.72436
20.36250	424.8432	10.72146
20.37083	425.0085	10.71853
20.37917	425.1769	10.71557
20.38750	425.3440	10.71263
20.39584	425.5096	10.70969
20.40417	425.6761	10.70671
20.41250	425.8455	10.70377
20.42084	426.0097	10.70084
20.42917	426.1778	10.69792
20.43750	426.3444	10.69500
20.44583	426.5128	10.69208
20.45416	426.6800	10.68917
20.46250	426.8482	10.68620
20.47083	427.0137	10.68322
20.47916	427.1898	10.68032
20.48750	427.3522	10.67741
20.49583	427.5160	10.67446
20.50417	427.6937	10.67150
20.51250	427.8510	10.66854
20.52084	428.0164	10.66558
20.52917	428.1850	10.66257
20.53750	428.3511	10.65962
20.54584	428.5167	10.65674
20.55417	428.6836	10.65385
20.56250	428.8523	10.65092
20.57083	429.0190	10.64800
20.57916	429.1866	10.64512
20.58750	429.3520	10.64222
20.59583	429.5214	10.63930
20.60416	429.6846	10.63639
20.61250	429.8531	10.63352
20.62083	430.0211	10.63061
20.62917	430.1883	10.62770
20.63750	430.3542	10.62480
20.64584	430.5209	10.62188
20.65417	430.6890	10.61896
20.66250	430.8561	10.61604
20.67084	431.0220	10.61313
20.67917	431.1900	10.61025
20.68750	431.3570	10.60736
20.69583	431.5234	10.60447
20.70416	431.6903	10.60157
20.71250	431.8581	10.59870
20.72083	432.0241	10.59583
20.72916	432.1906	10.59297
20.73750	432.3588	10.59009
20.74583	432.5250	10.58722
20.75417	432.6930	10.58434
20.76250	432.8576	10.58141
20.77084	433.0270	10.57850
20.77917	433.1929	10.57562
20.78750	433.3615	10.57275
20.79584	433.5278	10.56985
20.80417	433.6954	10.56697
20.81250	433.8619	10.56409
20.82083	434.0283	10.56119
20.82916	434.1953	10.55828
20.83750	434.3612	10.55540
20.84583	434.5296	10.55257
20.85416	434.7015	10.54971
20.86250	434.8620	10.54681
20.87083	435.0280	10.54389
20.87917	435.1982	10.54099
20.88750	435.3657	10.53808
20.89584	435.5304	10.53519
20.90417	435.6984	10.53231
20.91250	435.8650	10.52945
20.92084	436.0334	10.52662
20.92917	436.2018	10.52379
20.93750	436.3676	10.52097
20.94583	436.5360	10.51816
20.95416	436.7011	10.51533
20.96250	436.8706	10.51249
20.97083	437.0357	10.50967
20.97916	437.2034	10.50684
20.98750	437.3713	10.50400
20.99583	437.5390	10.50118
21.00417	437.7041	10.49829
21.01250	437.8718	10.49538
21.02084	438.0373	10.49251
21.02917	438.2033	10.48964
21.03750	438.3724	10.48679
21.04584	438.5402	10.48396
21.05417	438.7064	10.48112
21.06250	438.8740	10.47827
21.07083	439.0398	10.47544
21.07916	439.2078	10.47260
21.08750	439.3778	10.46980
21.09583	439.5512	10.46701
21.10416	439.7174	10.46417
21.11250	439.8860	10.46134
21.12083	440.0472	10.45850
21.12917	440.2102	10.45569
21.13750	440.3780	10.45289
21.14584	440.5450	10.45008
21.15417	440.7124	10.44725
21.16250	440.8794	10.44445
21.17084	441.0450	10.44164
21.17917	441.2158	10.43885
21.18750	441.3812	10.43605
21.19583	441.5448	10.43324
21.20416	441.7126	10.43044
21.21250	441.8807	10.42759
21.22083	442.0482	10.42474
21.22916	442.2200	10.42192
21.23750	442.3818	10.41907
21.24583	442.5485	10.41624
21.25417	442.7158	10.41343
21.26250	442.8828	10.41063
21.27084	443.0498	10.40784
21.27917	443.2172	10.40503
21.28750	443.3822	10.40221
21.29584	443.5510	10.39946
21.30417	443.7185	10.39667
21.31250	443.8848	10.39386
21.32083	444.0518	10.39109
21.32916	444.2180	10.38833
21.33750	444.3861	10.38557
21.34583	444.5522	10.38279
21.35416	444.7183	10.38002
21.36250	444.8882	10.37729
21.37083	445.0554	10.37455
21.37917	445.2207	10.37178
21.38750	445.3879	10.36903
21.39584	445.5559	10.36630
21.40417	445.7217	10.36354
21.41250	445.8889	10.36073
21.42084	446.0586	10.35792
21.42917	446.2217	10.35515
21.43750	446.3890	10.35235
21.44583	446.5598	10.34956
21.45416	446.7266	10.34681
21.46250	446.8918	10.34407
21.47083	447.0576	10.34130
21.47916	447.2240	10.33852
21.48750	447.3916	10.33572
21.49583	447.5600	10.33296
21.50417	447.7263	10.33020
21.51250	447.8940	10.32739
21.52084	448.0604	10.32464
21.52917	448.2275	10.32193
21.53750	448.3950	10.31921
21.54584	448.5612	10.31644
21.55417	448.7294	10.31370
21.56250	448.8960	10.31098
21.57083	449.0616	10.30828
21.57916	449.2313	10.30557
21.58750	449.3959	10.30285
21.59583	449.5625	10.30015
21.60416	449.7315	10.29744
21.61250	449.8969	10.29469
21.62083	450.0661	10.29193
21.62917	450.2286	10.28922
21.63750	450.3963	10.28650
21.64584	450.5671	10.28379
21.65417	450.7306	10.28108
21.66250	450.8967	10.27840
21.67084	451.0667	10.27573
21.67917	451.2330	10.27301
21.68750	451.3990	10.27024
21.69583	451.5662	10.26747
21.70416	451.7331	10.26472
21.71250	451.9014	10.26194
21.72083	452.0656	10.25919
21.72916	452.2340	10.25644
21.73750	452.4004	10.25370
21.74583	452.5683	10.25096
21.75417	452.7344	10.24822
21.76250	452.9013	10.24551
21.77084	453.0685	10.24282
21.77917	453.2362	10.24019
21.78750	453.4012	10.23749
21.79584	453.5690	10.23480
21.80417	453.7348	10.23210
21.81250	453.9018	10.22939
21.82083	454.0688	10.22669
21.82916	454.2357	10.22398
21.83750	454.4002	10.22129
21.84583	454.5678	10.21864
21.85416	454.7438	10.21601
21.86250	454.9100	10.21333
21.87083	455.0691	10.21068
21.87917	455.2370	10.20806
21.88750	455.4084	10.20541
21.89584	455.5718	10.20278
21.90417	455.7400	10.20017
21.91250	455.9046	10.19754
21.92084	456.0714	10.19488
21.92917	456.2378	10.19217
21.93750	456.4048	10.18947
21.94583	456.5720	10.18680
21.95416	456.7407	10.18414
21.96250	456.9063	10.18149
21.97083	457.0730	10.17884
21.97916	457.2398	10.17617
21.98750	457.4070	10.17347
21.99583	457.5728	10.17077
22.00417	457.7391	10.16813
22.01250	457.9086	10.16551
22.02084	458.0744	10.16285
22.02917	458.2422	10.16018
22.03750	458.4078	10.15752
22.04584	458.5774	10.15487
22.05417	458.7408	10.15221
22.06250	458.9110	10.14955
22.07083	459.0839	10.14693
22.07916	459.2539	10.14431
22.08750	459.4200	10.14162
22.09583	459.5875	10.13894
22.10416	459.7517	10.13628
22.11250	459.9185	10.13364
22.12083	460.0880	10.13102
22.12917	460.2519	10.12838
22.13750	460.4200	10.12575
22.14584	460.5889	10.12312
22.15417	460.7511	10.12046
22.16250	460.9189	10.11781
22.17084	461.0867	10.11517
22.17917	461.2535	10.11255
22.18750	461.4147	10.10995
22.19583	461.5790	10.10731
22.20416	461.7471	10.10467
22.21250	461.9132	10.10203
22.22083	462.0809	10.09938
22.22916	462.2510	10.09675
22.23750	462.4224	10.09412
22.24583	462.5893	10.09151
22.25417	462.7552	10.08892
22.26250	462.9196	10.08630
22.27084	463.0890	10.08369
22.27917	463.2508	10.08109
22.28750	463.4134	10.07846
22.29584	463.5813	10.07584
22.30417	463.7484	10.07324
22.31250	463.9154	10.07067
22.32083	464.0848	10.06811
22.32916	464.2478	10.06553
22.33750	464.4153	10.06294
22.34583	464.5813	10.06035
22.35416	464.7500	10.05774
22.36250	464.9167	10.05514
22.37083	465.0826	10.05258
22.37917	465.2511	10.05001
22.38750	465.4180	10.04741
22.39584	465.5861	10.04479
22.40417	465.7510	10.04217
22.41250	465.9194	10.03957
22.42084	466.0934	10.03699
22.42917	466.2594	10.03441
22.43750	466.4221	10.03185
22.44583	466.5848	10.02927
22.45416	466.7531	10.02667
22.46250	466.9199	10.02411
22.47083	467.0866	10.02155
22.47916	467.2539	10.01899
22.48750	467.4204	10.01640
22.49583	467.5879	10.01379
22.50417	467.7559	10.01119
22.51250	467.9190	10.00858
22.52084	468.0907	10.00599
22.52917	468.2556	10.00339
22.53750	468.4216	10.00079
22.54584	468.5893	9.998156
22.55417	468.7570	9.995532
22.56250	468.9232	9.992925
22.57083	469.0978	9.990344
22.57916	469.2656	9.987801
22.58750	469.4352	9.985266
22.59583	469.6000	9.982728
22.60416	469.7697	9.980181
22.61250	469.9306	9.977658
22.62083	470.0922	9.975165
22.62917	470.2602	9.972659
22.63750	470.4270	9.970118
22.64584	470.5940	9.967592
22.65417	470.7604	9.965089
22.66250	470.9270	9.962603
22.67084	471.0940	9.960090
22.67917	471.2618	9.957599
22.68750	471.4280	9.955106
22.69583	471.5953	9.952599
22.70416	471.7636	9.950069
22.71250	471.9274	9.947539
22.72083	472.0941	9.945025
22.72916	472.2624	9.942511
22.73750	472.4280	9.939985
22.74583	472.5956	9.937434
22.75417	472.7604	9.934911
22.76250	472.9291	9.932374
22.77084	473.0973	9.929851
22.77917	473.2634	9.927337
22.78750	473.4312	9.924824
22.79584	473.5970	9.922324
22.80417	473.7646	9.919816
22.81250	473.9300	9.917264
22.82083	474.0984	9.914708
22.82916	474.2680	9.912158
22.83750	474.4320	9.909637
22.84583	474.6013	9.907137
22.85416	474.7686	9.904606
22.86250	474.9330	9.902103
22.87083	475.1011	9.899594
22.87917	475.2665	9.897101
22.88750	475.4356	9.894634
22.89584	475.6024	9.892201
22.90417	475.7690	9.889758
22.91250	475.9350	9.887312
22.92084	476.1036	9.884842
22.92917	476.2700	9.882355
22.93750	476.4462	9.879906
22.94583	476.6102	9.877422
22.95416	476.7719	9.874945
22.96250	476.9382	9.872488
22.97083	477.1036	9.870015
22.97916	477.2722	9.867519
22.98750	477.4396	9.865043
22.99583	477.6056	9.862582
23.00417	477.7717	9.860124
23.01250	477.9402	9.857656
23.02084	478.1075	9.855168
23.02917	478.2752	9.852691
23.03750	478.4432	9.850222
23.04584	478.6094	9.847759
23.05417	478.7756	9.845311
23.06250	478.9428	9.842887
23.07083	479.1100	9.840449
23.07916	479.2786	9.837999
23.08750	479.4447	9.835541
23.09583	479.6117	9.833074
23.10416	479.7762	9.830621
23.11250	479.9441	9.828160
23.12083	480.1120	9.825689
23.12917	480.2785	9.823202
23.13750	480.4442	9.820734
23.14584	480.6113	9.818309
23.15417	480.7780	9.815889
23.16250	480.9450	9.813462
23.17084	481.1136	9.811036
23.17917	481.2863	9.808597
23.18750	481.4530	9.806170
23.19583	481.6201	9.803772
23.20416	481.7868	9.801419
23.21250	481.9470	9.799028
23.22083	482.1120	9.796594
23.22916	482.2794	9.794149
23.23750	482.4456	9.791694
23.24583	482.6122	9.789215
23.25417	482.7782	9.786751
23.26250	482.9458	9.784344
23.27084	483.1124	9.781932
23.27917	483.2808	9.779497
23.28750	483.4472	9.777050
23.29584	483.6134	9.774640
23.30417	483.7822	9.772255
23.31250	483.9488	9.769881
23.32083	484.1149	9.767499
23.32916	484.2815	9.765161
23.33750	484.4492	9.762836
23.34583	484.6161	9.760501
23.35416	484.7835	9.758156
23.36250	484.9516	9.755793
23.37083	485.1171	9.753418
23.37917	485.2830	9.751063
23.38750	485.4511	9.748718
23.39584	485.6180	9.746347
23.40417	485.7838	9.744006
23.41250	485.9516	9.741661
23.42084	486.1186	9.739306
23.42917	486.2860	9.736931
23.43750	486.4515	9.734538
23.44583	486.6207	9.732176
23.45416	486.7869	9.729836
23.46250	486.9504	9.727462
23.47083	487.1188	9.725076
23.47916	487.2857	9.722702
23.48750	487.4542	9.720336
23.49583	487.6206	9.717957
23.50417	487.7874	9.715595
23.51250	487.9534	9.713261
23.52084	488.1226	9.710959
23.52917	488.2871	9.708644
23.53750	488.4563	9.706319
23.54584	488.6224	9.704009
23.55417	488.7900	9.701714
23.56250	488.9548	9.699389
23.57083	489.1206	9.697089
23.57916	489.2898	9.694794
23.58750	489.4592	9.692457
23.59583	489.6244	9.690121
23.60416	489.7890	9.687756
23.61250	489.9594	9.685366
23.62083	490.1241	9.683024
23.62917	490.2910	9.680694
23.63750	490.4590	9.678328
23.64584	490.6244	9.675988
23.65417	490.7952	9.673668
23.66250	490.9679	9.671330
23.67084	491.1347	9.669043
23.67917	491.3016	9.666772
23.68750	491.4702	9.664507
23.69583	491.6356	9.662281
23.70416	491.8016	9.660018
23.71250	491.9678	9.657744
23.72083	492.1361	9.655509
23.72916	492.3011	9.653272
23.73750	492.4680	9.651000
23.74583	492.6374	9.648735
23.75417	492.8034	9.646453
23.76250	492.9703	9.644170
23.77084	493.1350	9.641898
23.77917	493.2948	9.639621
23.78750	493.4606	9.637344
23.79584	493.6296	9.635092
23.80417	493.7960	9.632872
23.81250	493.9636	9.630629
23.82083	494.1313	9.628356
23.82916	494.2989	9.626075
23.83750	494.4666	9.623828
23.84583	494.6321	9.621606
23.85416	494.7989	9.619368
23.86250	494.9652	9.617130
23.87083	495.1334	9.614882
23.87917	495.3013	9.612616
23.88750	495.4668	9.610324
23.89584	495.6328	9.608076
23.90417	495.8012	9.605859
23.91250	495.9662	9.603614
23.92084	496.1338	9.601349
23.92917	496.3012	9.599069
23.93750	496.4680	9.596825
23.94583	496.6357	9.594598
23.95416	496.8034	9.592388
23.96250	496.9694	9.590197
23.97083	497.1366	9.588008
23.97916	497.3034	9.585786
23.98750	497.4712	9.583561
23.99583	497.6402	9.581399
24.00417	497.8039	9.579220
24.01250	497.9730	9.576996
24.02084	498.1410	9.574789
24.02917	498.3111	9.572574
24.03750	498.4773	9.570359
24.04584	498.6444	9.568140
24.05417	498.8130	9.565929
24.06250	498.9789	9.563735
24.07083	499.1454	9.561532
24.07916	499.3064	9.559311
24.08750	499.4732	9.557120
24.09583	499.6411	9.554937
24.10416	499.8072	9.552719
24.11250	499.9738	9.550506
24.12083	500.1412	9.548332
24.12917	500.3074	9.546166
24.13750	500.4754	9.543976
24.14584	500.6445	9.541778
24.15417	500.8076	9.539616
24.16250	500.9772	9.537461
24.17084	501.1426	9.535272
24.17917	501.3082	9.533124
24.18750	501.4777	9.531007
24.19583	501.6472	9.528884
24.20416	501.8126	9.526719
24.21250	501.9789	9.524609
24.22083	502.1450	9.522535
24.22916	502.3122	9.520410
24.23750	502.4789	9.518265
24.24583	502.6432	9.516131
24.25417	502.8141	9.514008
24.26250	502.9796	9.511862
24.27084	503.1470	9.509712
24.27917	503.3137	9.507584
24.28750	503.4828	9.505441
24.29584	503.6491	9.503224
24.30417	503.8140	9.500995
24.31250	503.9826	9.498861
24.32083	504.1504	9.496750
24.32916	504.3189	9.494608
24.33750	504.4848	9.492496
24.34583	504.6516	9.490386
24.35416	504.8190	9.488254
24.36250	504.9859	9.486147
24.37083	505.1537	9.484085
24.37917	505.3200	9.482049
24.38750	505.4868	9.479981
24.39584	505.6542	9.477921
24.40417	505.8204	9.475824
24.41250	505.9868	9.473749
24.42084	506.1556	9.471682
24.42917	506.3215	9.469599
24.43750	506.4898	9.467545
24.44583	506.6538	9.465454
24.45416	506.8226	9.463345
24.46250	506.9884	9.461288
24.47083	507.1550	9.459194
24.47916	507.3226	9.457064
24.48750	507.4902	9.454953
24.49583	507.6570	9.452886
24.50417	507.8224	9.450809
24.51250	507.9926	9.448768
24.52084	508.1586	9.446669
24.52917	508.3250	9.444571
24.53750	508.4895	9.442444
24.54584	508.6593	9.440330
24.55417	508.8239	9.438281
24.56250	508.9930	9.436234
24.57083	509.1592	9.434219
24.57916	509.3286	9.432208
24.58750	509.4940	9.430194
24.59583	509.6604	9.428163
24.60416	509.8290	9.426172
24.61250	509.9954	9.424186
24.62083	510.1624	9.422228
24.62917	510.3276	9.420259
24.63750	510.4958	9.418312
24.64584	510.6700	9.416328
24.65417	510.8362	9.414298
24.66250	510.9961	9.412261
24.67084	511.1644	9.410242
24.67917	511.3312	9.408249
24.68750	511.4967	9.406253
24.69583	511.6648	9.404268
24.70416	511.8324	9.402286
24.71250	512.0000	9.400280
24.72083	512.1667	9.398258
24.72916	512.3321	9.396265
24.73750	512.5006	9.394294
24.74583	512.6676	9.392343
24.75417	512.8348	9.390376
24.76250	512.9990	9.388397
24.77084	513.1654	9.386412
24.77917	513.3354	9.384454
24.78750	513.4996	9.382476
24.79584	513.6674	9.380499
24.80417	513.8346	9.378547
24.81250	513.9988	9.376603
24.82083	514.1684	9.374678
24.82916	514.3329	9.372728
24.83750	514.5014	9.370772
24.84583	514.6690	9.368806
24.85416	514.8340	9.366853
24.86250	515.0026	9.364913
24.87083	515.1746	9.363007
24.87917	515.3377	9.361103
24.88750	515.5029	9.359191
24.89584	515.6694	9.357288
24.90417	515.8367	9.355350
24.91250	516.0043	9.353419
24.92084	516.1690	9.351503
24.92917	516.3356	9.349616
24.93750	516.5034	9.347736
24.94583	516.6714	9.345841
24.95416	516.8365	9.343918
24.96250	517.0046	9.342009
24.97083	517.1698	9.340100
24.97916	517.3394	9.338181
24.98750	517.5106	9.336309
24.99583	517.6776	9.334438
25.00417	517.8432	9.332544
25.01250	518.0098	9.330658
25.02084	518.1776	9.328781
25.02917	518.3426	9.326922
25.03750	518.5093	9.325058
25.04584	518.6770	9.323160
25.05417	518.8432	9.321282
25.06250	519.0087	9.319422
25.07083	519.1748	9.317538
25.07916	519.3438	9.315675
25.08750	519.5094	9.313824
25.09583	519.6758	9.311975
25.10416	519.8428	9.310111
25.11250	520.0094	9.308253
25.12083	520.1726	9.306421
25.12917	520.3361	9.304601
25.13750	520.5048	9.302756
25.14584	520.6690	9.300909
25.15417	520.8360	9.299098
25.16250	521.0034	9.297284
25.17084	521.1713	9.295441
25.17917	521.3370	9.293590
25.18750	521.5043	9.291749
25.19583	521.6690	9.289908
25.20416	521.8380	9.288082
25.21250	522.0018	9.286295
25.22083	522.1707	9.284522
25.22916	522.3375	9.282746
25.23750	522.5044	9.280939
25.24583	522.6712	9.279120
25.25417	522.8386	9.277329
25.26250	523.0060	9.275562
25.27084	523.1719	9.273818
25.27917	523.3361	9.272059
25.28750	523.5054	9.270297
25.29584	523.6715	9.268536
25.30417	523.8390	9.266736
25.31250	524.0030	9.264941
25.32083	524.1706	9.263172
25.32916	524.3382	9.261426
25.33750	524.5050	9.259689
25.34583	524.6688	9.257939
25.35416	524.8384	9.256158
25.36250	525.0046	9.254394
25.37083	525.1708	9.252632
25.37917	525.3360	9.250851
25.38750	525.5028	9.249119
25.39584	525.6707	9.247399
25.40417	525.8360	9.245680
25.41250	526.0014	9.243951
25.42084	526.1692	9.242225
25.42917	526.3347	9.240519
25.43750	526.5019	9.238840
25.44583	526.6700	9.237137
25.45416	526.8350	9.235405
25.46250	527.0007	9.233678
25.47083	527.1700	9.231938
25.47916	527.3355	9.230212
25.48750	527.5005	9.228478
25.49583	527.6684	9.226744
25.50417	527.8356	9.225055
25.51250	528.0003	9.223312
25.52084	528.1675	9.221553
25.52917	528.3335	9.219829
25.53750	528.5000	9.218142
25.54584	528.6682	9.216468
25.55417	528.8321	9.214806
25.56250	529.0000	9.213149
25.57083	529.1646	9.211494
25.57916	529.3328	9.209844
25.58750	529.5002	9.208168
25.59583	529.6650	9.206543
25.60416	529.8318	9.204924
25.61250	530.0012	9.203278
25.62083	530.1664	9.201612
25.62917	530.3336	9.199945
25.63750	530.4996	9.198258
25.64584	530.6648	9.196593
25.65417	530.8309	9.194988
25.66250	530.9986	9.193348
25.67084	531.1646	9.191710
25.67916	531.3300	9.190063
25.68750	531.4978	9.188452
25.69584	531.6660	9.186860
25.70416	531.8295	9.185243
25.71250	531.9963	9.183628
25.72083	532.1627	9.182069
25.72916	532.3293	9.180494
25.73750	532.4951	9.178858
25.74583	532.6610	9.177249
25.75417	532.8272	9.175628
25.76250	532.9966	9.174034
25.77084	533.1612	9.172444
25.77917	533.3276	9.170852
25.78750	533.4934	9.169266
25.79584	533.6590	9.167681
25.80416	533.8284	9.166080
25.81250	533.9931	9.164484
25.82084	534.1598	9.162902
25.82916	534.3272	9.161335
25.83750	534.4950	9.159761
25.84583	534.6608	9.158166
25.85416	534.8260	9.156580
25.86250	534.9918	9.155009
25.87083	535.1639	9.153447
25.87917	535.3265	9.151866
25.88750	535.4884	9.150253
25.89584	535.6566	9.148671
25.90417	535.8232	9.147088
25.91250	535.9882	9.145500
25.92084	536.1562	9.143944
25.92916	536.3213	9.142418
25.93750	536.4882	9.140859
25.94584	536.6545	9.139274
25.95416	536.8193	9.137714
25.96250	536.9879	9.136195
25.97083	537.1580	9.134692
25.97916	537.3288	9.133137
25.98750	537.4957	9.131591
25.99583	537.6630	9.130070
26.00417	537.8262	9.128539
26.01250	537.9898	9.126993
26.02084	538.1484	9.125472
26.02917	538.3175	9.123938
26.03750	538.4818	9.122394
26.04584	538.6502	9.120861
26.05416	538.8160	9.119331
26.06250	538.9820	9.117832
26.07084	539.1469	9.116342
26.07916	539.3142	9.114849
26.08750	539.4820	9.113348
26.09583	539.6460	9.111828
26.10416	539.8140	9.110272
26.11250	539.9791	9.108738
26.12083	540.1461	9.107219
26.12917	540.3116	9.105674
26.13750	540.4771	9.104137
26.14584	540.6434	9.102597
26.15417	540.8079	9.101074
26.16250	540.9753	9.099519
26.17084	541.1420	9.097944
26.17916	541.3116	9.096457
26.18750	541.4778	9.095008
26.19584	541.6462	9.093594
26.20416	541.8120	9.092166
26.21250	541.9785	9.090766
26.22083	542.1442	9.089361
26.22916	542.3102	9.087945
26.23750	542.4770	9.086508
26.24583	542.6441	9.085109
26.25417	542.8093	9.083755
26.26250	542.9762	9.082311
26.27084	543.1406	9.080842
26.27917	543.3021	9.079387
26.28750	543.4682	9.077941
26.29584	543.6355	9.076508
26.30416	543.7984	9.075066
26.31250	543.9650	9.073609
26.32084	544.1300	9.072144
26.32916	544.2970	9.070655
26.33750	544.4657	9.069178
26.34583	544.6342	9.067730
26.35416	544.8060	9.066306
26.36250	544.9690	9.064816
26.37083	545.1266	9.063303
26.37917	545.2915	9.061768
26.38750	545.4589	9.060285
26.39584	545.6235	9.058826
26.40417	545.7937	9.057374
26.41250	545.9579	9.055938
26.42084	546.1228	9.054470
26.42916	546.2915	9.052960
26.43750	546.4548	9.051431
26.44584	546.6220	9.049951
26.45416	546.7883	9.048508
26.46250	546.9536	9.047081
26.47083	547.1206	9.045632
26.47916	547.2842	9.044149
26.48750	547.4516	9.042694
26.49583	547.6168	9.041241
26.50417	547.7836	9.039796
26.51250	547.9500	9.038380
26.52084	548.1176	9.036988
26.52917	548.2828	9.035605
26.53750	548.4474	9.034218
26.54584	548.6148	9.032812
26.55416	548.7802	9.031386
26.56250	548.9459	9.030009
26.57084	549.1120	9.028626
26.57916	549.2793	9.027245
26.58750	549.4442	9.025826
26.59583	549.6115	9.024432
26.60416	549.7763	9.023031
26.61250	549.9430	9.021644
26.62083	550.1075	9.020262
26.62917	550.2754	9.018869
26.63750	550.4408	9.017469
26.64584	550.6068	9.016069
26.65417	550.7743	9.014662
26.66250	550.9398	9.013211
26.67084	551.1050	9.011789
26.67916	551.2679	9.010428
26.68750	551.4355	9.009078
26.69584	551.6030	9.007660
26.70416	551.7685	9.006222
26.71250	551.9345	9.004845
26.72083	552.1068	9.003496
26.72916	552.2750	9.002145
26.73750	552.4400	9.000805
26.74583	552.6071	8.999507
26.75417	552.7671	8.998219
26.76250	552.9280	8.996837
26.77084	553.0966	8.995460
26.77917	553.2642	8.994116
26.78750	553.4271	8.992788
26.79584	553.5936	8.991411
26.80416	553.7566	8.990015
26.81250	553.9248	8.988649
26.82084	554.0887	8.987262
26.82916	554.2563	8.985859
26.83750	554.4220	8.984451
26.84583	554.5894	8.983056
26.85416	554.7570	8.981681
26.86250	554.9201	8.980268
26.87083	555.0881	8.978888
26.87917	555.2530	8.977538
26.88750	555.4193	8.976195
26.89584	555.5840	8.974836
26.90417	555.7524	8.973497
26.91250	555.9163	8.972171
26.92084	556.0837	8.970848
26.92916	556.2494	8.969551
26.93750	556.4160	8.968224
26.94584	556.5813	8.966922
26.95416	556.7465	8.965572
26.96250	556.9148	8.964203
26.97083	557.0791	8.962884
26.97916	557.2444	8.961542
26.98750	557.4111	8.960168
26.99583	557.5769	8.958819
27.00417	557.7430	8.957508
27.01250	557.9076	8.956191
27.02084	558.0741	8.954901
27.02917	558.2390	8.953606
27.03750	558.4046	8.952305
27.04584	558.5714	8.950995
27.05416	558.7360	8.949619
27.06250	558.9032	8.948280
27.07084	559.0684	8.947000
27.07916	559.2338	8.945704
27.08750	559.4000	8.944388
27.09583	559.5646	8.943056
27.10416	559.7310	8.941710
27.11250	559.8972	8.940380
27.12083	560.0632	8.939069
27.12917	560.2278	8.937781
27.13750	560.3951	8.936531
27.14584	560.5584	8.935259
27.15417	560.7250	8.933968
27.16250	560.8918	8.932670
27.17084	561.0566	8.931394
27.17916	561.2232	8.930116
27.18750	561.3861	8.928826
27.19584	561.5548	8.927574
27.20416	561.7195	8.926324
27.21250	561.8868	8.925050
27.22083	562.0515	8.923762
27.22916	562.2179	8.922462
27.23750	562.3866	8.921151
27.24583	562.5476	8.919843
27.25417	562.7168	8.918484
27.26250	562.8799	8.917176
27.27084	563.0468	8.915932
27.27917	563.2108	8.914642
27.28750	563.3752	8.913368
27.29584	563.5420	8.912149
27.30416	563.7080	8.910916
27.31250	563.8738	8.909634
27.32084	564.0368	8.908366
27.32916	564.2058	8.907061
27.33750	564.3712	8.905762
27.34583	564.5371	8.904441
27.35416	564.7038	8.903092
27.36250	564.8686	8.901766
27.37083	565.0347	8.900436
27.37917	565.1998	8.899074
27.38750	565.3656	8.897766
27.39584	565.5316	8.896509
27.40417	565.6956	8.895214
27.41250	565.8640	8.893953
27.42084	566.0294	8.892716
27.42916	566.1944	8.891480
27.43750	566.3582	8.890242
27.44584	566.5270	8.889001
27.45416	566.6932	8.887753
27.46250	566.8579	8.886509
27.47083	567.0235	8.885235
27.47916	567.1880	8.883930
27.48750	567.3543	8.882644
27.49583	567.5210	8.881366
27.50417	567.6851	8.880141
27.51250	567.8519	8.878931
27.52084	568.0176	8.877703
27.52917	568.1838	8.876456
27.53750	568.3514	8.875212
27.54584	568.5137	8.873974
27.55416	568.6808	8.872722
27.56250	568.8452	8.871504
27.57084	569.0110	8.870312
27.57916	569.1770	8.869106
27.58750	569.3438	8.867862
27.59583	569.5113	8.866610
27.60416	569.6730	8.865353
27.61250	569.8381	8.864095
27.62083	570.0051	8.862886
27.62917	570.1724	8.861644
27.63750	570.3440	8.860412
27.64584	570.5106	8.859209
27.65417	570.6691	8.858014
27.66250	570.8339	8.856806
27.67084	570.9986	8.855586
27.67916	571.1660	8.854359
27.68750	571.3312	8.853122
27.69584	571.5036	8.851922
27.70416	571.6702	8.850738
27.71250	571.8356	8.849558
27.72083	572.0008	8.848382
27.72916	572.1660	8.847192
27.73750	572.3335	8.845991
27.74583	572.4969	8.844819
27.75417	572.6650	8.843641
27.76250	572.8287	8.842416
27.77084	572.9953	8.841195
27.77917	573.1578	8.839966
27.78750	573.3235	8.838705
27.79584	573.4856	8.837469
27.80416	573.6512	8.836274
27.81250	573.8130	8.835116
27.82084	573.9854	8.833932
27.82916	574.1474	8.832738
27.83750	574.3125	8.831562
27.84583	574.4781	8.830438
27.85416	574.6440	8.829328
27.86250	574.8078	8.828197
27.87083	574.9743	8.827015
27.87917	575.1404	8.825850
27.88750	575.3059	8.824701
27.89584	575.4715	8.823478
27.90417	575.6374	8.822257
27.91250	575.8026	8.821063
27.92084	575.9676	8.819858
27.92916	576.1348	8.818639
27.93750	576.2995	8.817444
27.94584	576.4650	8.816290
27.95416	576.6312	8.815176
27.96250	576.7950	8.814028
27.97083	576.9610	8.812824
27.97916	577.1300	8.811662
27.98750	577.3002	8.810519
27.99583	577.4592	8.809356
28.00417	577.6242	8.808199
28.01250	577.7940	8.807030
28.02084	577.9568	8.805832
28.02917	578.1230	8.804590
28.03750	578.2873	8.803344
28.04584	578.4558	8.802121
28.05416	578.6308	8.800902
28.06250	578.7936	8.799650
28.07084	578.9578	8.798426
28.07916	579.1222	8.797222
28.08750	579.2896	8.796016
28.09583	579.4539	8.794848
28.10416	579.6203	8.793734
28.11250	579.7875	8.792587
28.12083	579.9520	8.791446
28.12917	580.1184	8.790291
28.13750	580.2832	8.789134
28.14584	580.4496	8.788038
28.15417	580.6133	8.786928
28.16250	580.7802	8.785792
28.17084	580.9437	8.784676
28.17916	581.1104	8.783569
28.18750	581.2762	8.782413
28.19584	581.4419	8.781281
28.20416	581.6031	8.780136
28.21250	581.7644	8.778991
28.22083	581.9320	8.777848
28.22916	582.0958	8.776694
28.23750	582.2628	8.775536
28.24583	582.4280	8.774389
28.25417	582.5918	8.773212
28.26250	582.7613	8.771991
28.27084	582.9310	8.770732
28.27917	583.0907	8.769519
28.28750	583.2554	8.768375
28.29584	583.4217	8.767254
28.30416	583.5896	8.766112
28.31250	583.7532	8.764960
28.32084	583.9190	8.763795
28.32916	584.0855	8.762622
28.33750	584.2538	8.761466
28.34583	584.4220	8.760345
28.35416	584.5892	8.759284
28.36250	584.7527	8.758257
28.37083	584.9192	8.757230
28.37917	585.0843	8.756137
28.38750	585.2456	8.754999
28.39584	585.4114	8.753840
28.40417	585.5783	8.752678
28.41250	585.7399	8.751538
28.42084	585.9082	8.750379
28.42916	586.0752	8.749206
28.43750	586.2387	8.748016
28.44584	586.4036	8.746793
28.45416	586.5676	8.745559
28.46250	586.7358	8.744392
28.47083	586.9004	8.743281
28.47916	587.0663	8.742220
28.48750	587.2329	8.741151
28.49583	587.3979	8.740031
28.50417	587.5648	8.738931
28.51250	587.7309	8.737847
28.52084	587.8968	8.736781
28.52917	588.0627	8.735686
28.53750	588.2278	8.734526
28.54584	588.3919	8.733368
28.55416	588.5600	8.732234
28.56250	588.7246	8.731074
28.57084	588.8900	8.729922
28.57916	589.0564	8.728799
28.58750	589.2211	8.727680
28.59583	589.3902	8.726554
28.60416	589.5568	8.725390
28.61250	589.7206	8.724228
28.62083	589.8854	8.723072
28.62917	590.0537	8.721872
28.63750	590.2164	8.720678
28.64584	590.3829	8.719506
28.65417	590.5502	8.718324
28.66250	590.7157	8.717126
28.67084	590.8810	8.715944
28.67916	591.0463	8.714796
28.68750	591.2105	8.713662
28.69584	591.3794	8.712531
28.70416	591.5449	8.711476
28.71250	591.7108	8.710428
28.72083	591.8768	8.709356
28.72916	592.0480	8.708225
28.73750	592.2145	8.707099
28.74583	592.3798	8.706019
28.75417	592.5484	8.704937
28.76250	592.7140	8.703798
28.77084	592.8778	8.702662
28.77917	593.0419	8.701545
28.78750	593.2094	8.700350
28.79584	593.3757	8.699184
28.80416	593.5410	8.698036
28.81250	593.7072	8.696922
28.82084	593.8731	8.695809
28.82916	594.0410	8.694678
28.83750	594.2085	8.693542
28.84583	594.3684	8.692438
28.85416	594.5359	8.691352
28.86250	594.7029	8.690272
28.87083	594.8682	8.689231
28.87917	595.0328	8.688137
28.88750	595.1978	8.687011
28.89584	595.3663	8.685870
28.90417	595.5322	8.684707
28.91250	595.6895	8.683504
28.92084	595.8535	8.682265
28.92916	596.0211	8.681024
28.93750	596.1874	8.679766
28.94584	596.3524	8.678511
28.95416	596.5188	8.677243
28.96250	596.6840	8.676032
28.97083	596.8507	8.674884
28.97916	597.0163	8.673766
28.98750	597.1844	8.672662
28.99583	597.3498	8.671593
29.00417	597.5164	8.670564
29.01250	597.6804	8.669501
29.02084	597.8441	8.668409
29.02917	598.0144	8.667304
29.03750	598.1783	8.666212
29.04584	598.3428	8.665101
29.05416	598.5096	8.663941
29.06250	598.6774	8.662738
29.07084	598.8418	8.661566
29.07916	599.0076	8.660419
29.08750	599.1739	8.659226
29.09583	599.3396	8.658041
29.10416	599.5075	8.656871
29.11250	599.6718	8.655710
29.12083	599.8398	8.654524
29.12917	600.0056	8.653329
29.13750	600.1705	8.652131
29.14584	600.3337	8.650970
29.15417	600.5000	8.649780
29.16250	600.6750	8.648551
29.17084	600.8418	8.647326
29.17916	601.0080	8.646109
29.18750	601.1726	8.644906
29.19584	601.3379	8.643660
29.20416	601.5034	8.642361
29.21250	601.6671	8.641049
29.22083	601.8301	8.639766
29.22916	601.9958	8.638495
29.23750	602.1604	8.637241
29.24583	602.3276	8.636012
29.25417	602.4954	8.634816
29.26250	602.6610	8.633563
29.27084	602.8254	8.632291
29.27917	602.9915	8.631056
29.28750	603.1615	8.629884
29.29584	603.3318	8.628757
29.30416	603.4939	8.627576
29.31250	603.6548	8.626362
29.32084	603.8218	8.625188
29.32916	603.9860	8.623999
29.33750	604.1539	8.622755
29.34583	604.3201	8.621564
29.35416	604.4854	8.620419
29.36250	604.6498	8.619262
29.37083	604.8171	8.618061
29.37917	604.9821	8.616811
29.38750	605.1489	8.615606
29.39584	605.3151	8.614434
29.40417	605.4813	8.613226
29.41250	605.6466	8.612050
29.42084	605.8120	8.610894
29.42916	605.9797	8.609718
29.43750	606.1442	8.608515
29.44584	606.3125	8.607309
29.45416	606.4855	8.606141
29.46250	606.6518	8.604988
29.47083	606.8178	8.603814
29.47916	606.9843	8.602600
29.48750	607.1491	8.601366
29.49583	607.3160	8.600102
29.50417	607.4820	8.598822
29.51250	607.6462	8.597551
29.52084	607.8125	8.596278
29.52917	607.9805	8.595014
29.53750	608.1450	8.593756
29.54584	608.3110	8.592476
29.55416	608.4786	8.591212
29.56250	608.6404	8.589978
29.57084	608.8061	8.588778
29.57916	608.9680	8.587590
29.58750	609.1311	8.586359
29.59583	609.2984	8.585082
29.60416	609.4680	8.583831
29.61250	609.6332	8.582605
29.62083	609.7984	8.581353
29.62917	609.9661	8.580125
29.63750	610.1312	8.578898
29.64584	610.2994	8.577681
29.65417	610.4660	8.576428
29.66250	610.6314	8.575128
29.67084	610.7982	8.573902
29.67916	610.9640	8.572718
29.68750	611.1305	8.571444
29.69584	611.2961	8.570125
29.70416	611.4611	8.568839
29.71250	611.6287	8.567569
29.72083	611.7946	8.566275
29.72916	611.9604	8.564898
29.73750	612.1266	8.563476
29.74583	612.2948	8.562066
29.75417	612.4595	8.560668
29.76250	612.6252	8.559291
29.77084	612.7928	8.557988
29.77917	612.9582	8.556695
29.78750	613.1255	8.555366
29.79584	613.2885	8.553992
29.80416	613.4568	8.552658
29.81250	613.6228	8.551400
29.82084	613.7890	8.550164
29.82916	613.9545	8.548906
29.83750	614.1212	8.547595
29.84583	614.2871	8.546275
29.85416	614.4532	8.544906
29.86250	614.6194	8.543472
29.87083	614.7864	8.542118
29.87917	614.9520	8.540844
29.88750	615.1201	8.539559
29.89584	615.2851	8.538222
29.90417	615.4539	8.536871
29.91250	615.6180	8.535556
29.92084	615.7847	8.534293
29.92916	615.9512	8.533012
29.93750	616.1160	8.531714
29.94584	616.2830	8.530449
29.95416	616.4480	8.529132
29.96250	616.6130	8.527749
29.97083	616.7806	8.526351
29.97916	616.9473	8.524901
29.98750	617.1124	8.523484
29.99583	617.2807	8.522094
30.00417	617.4450	8.520675
30.01250	617.6114	8.519239
30.02084	617.7786	8.517841
30.02917	617.9430	8.516445
30.03750	618.1110	8.515006
30.04584	618.2765	8.513551
30.05416	618.4430	8.512076
30.06250	618.6074	8.510680
30.07084	618.7756	8.509266
30.07916	618.9485	8.507860
30.08750	619.1152	8.506445
30.09583	619.2808	8.505009
30.10416	619.4444	8.503585
30.11250	619.6062	8.502162
30.12083	619.7720	8.500793
30.12917	619.9401	8.499457
30.13750	620.1042	8.498111
30.14584	620.2716	8.496722
30.15417	620.4377	8.495300
30.16250	620.6039	8.493850
30.17084	620.7704	8.492434
30.17916	620.9414	8.491094
30.18750	621.1093	8.489712
30.19584	621.2762	8.488305
30.20416	621.4430	8.486860
30.21250	621.6074	8.485369
30.22083	621.7763	8.483881
30.22916	621.9376	8.482418
30.23750	622.1011	8.480972
30.24583	622.2672	8.479551
30.25417	622.4321	8.478119
30.26250	622.5974	8.476676
30.27084	622.7630	8.475269
30.27917	622.9294	8.473863
30.28750	623.0963	8.472426
30.29584	623.2680	8.471019
30.30416	623.4365	8.469618
30.31250	623.6006	8.468180
30.32084	623.7670	8.466753
30.32916	623.9290	8.465288
30.33750	624.0950	8.463793
30.34583	624.2608	8.462269
30.35416	624.4285	8.460712
30.36250	624.5950	8.459161
30.37083	624.7605	8.457663
30.37917	624.9273	8.456153
30.38750	625.0944	8.454616
30.39584	625.2598	8.453111
30.40417	625.4250	8.451624
30.41250	625.5910	8.450118
30.42084	625.7578	8.448587
30.42916	625.9238	8.447024
30.43750	626.0885	8.445486
30.44584	626.2570	8.444012
30.45416	626.4238	8.442522
30.46250	626.5887	8.441009
30.47083	626.7560	8.439476
30.47916	626.9229	8.437968
30.48750	627.0886	8.436469
30.49583	627.2566	8.434942
30.50417	627.4224	8.433426
30.51250	627.5873	8.431928
30.52084	627.7554	8.430420
30.52917	627.9186	8.428875
30.53750	628.0863	8.427312
30.54584	628.2554	8.425736
30.55416	628.4232	8.424147
30.56250	628.5937	8.422491
30.57084	628.7576	8.420819
30.57916	628.9245	8.419250
30.58750	629.0907	8.417742
30.59583	629.2572	8.416265
30.60416	629.4224	8.414728
30.61250	629.5898	8.413156
30.62083	629.7515	8.411591
30.62917	629.9184	8.410072
30.63750	630.0840	8.408638
30.64584	630.2505	8.407209
30.65417	630.4155	8.405744
30.66250	630.5822	8.404168
30.67084	630.7481	8.402472
30.67916	630.9161	8.400742
30.68750	631.0820	8.399120
30.69584	631.2484	8.397563
30.70416	631.4164	8.395978
30.71250	631.5810	8.394394
30.72083	631.7492	8.392778
30.72916	631.9156	8.391168
30.73750	632.0810	8.389520
30.74583	632.2490	8.387918
30.75417	632.4160	8.386401
30.76250	632.5818	8.384879
30.77084	632.7480	8.383246
30.77917	632.9141	8.381580
30.78750	633.0868	8.379988
30.79584	633.2526	8.378363
30.80416	633.4200	8.376704
30.81250	633.5868	8.375055
30.82084	633.7530	8.373442
30.82916	633.9210	8.371808
30.83750	634.0877	8.370157
30.84583	634.2527	8.368530
30.85416	634.4194	8.366918
30.86250	634.5838	8.365280
30.87083	634.7485	8.363579
30.87917	634.9141	8.361913
30.88750	635.0814	8.360259
30.89584	635.2469	8.358609
30.90417	635.4156	8.356962
30.91250	635.5831	8.355332
30.92084	635.7461	8.353688
30.92916	635.9142	8.352012
30.93750	636.0800	8.350332
30.94584	636.2474	8.348650
30.95416	636.4145	8.347030
30.96250	636.5830	8.345376
30.97083	636.7494	8.343700
30.97916	636.9156	8.342016
30.98750	637.0804	8.340340
30.99583	637.2498	8.338671
31.00417	637.4163	8.337007
31.01250	637.5828	8.335336
31.02084	637.7490	8.333720
31.02917	637.9168	8.332130
31.03750	638.0834	8.330489
31.04584	638.2500	8.328800
31.05416	638.4172	8.327138
31.06250	638.5824	8.325509
31.07084	638.7500	8.323851
31.07916	638.9164	8.322165
31.08750	639.0842	8.320482
31.09583	639.2500	8.318820
31.10416	639.4179	8.317108
31.11250	639.5849	8.315386
31.12083	639.7508	8.313647
31.12917	639.9192	8.311958
31.13750	640.0848	8.310272
31.14584	640.2518	8.308530
31.15417	640.4198	8.306784
31.16250	640.5834	8.305055
31.17084	640.7536	8.303336
31.17916	640.9206	8.301620
31.18750	641.0858	8.299894
31.19584	641.2519	8.298158
31.20416	641.4199	8.296430
31.21250	641.5870	8.294669
31.22083	641.7518	8.292878
31.22916	641.9188	8.291108
31.23750	642.0876	8.289359
31.24583	642.2549	8.287605
31.25417	642.4204	8.285831
31.26250	642.5871	8.284063
31.27084	642.7558	8.282336
31.27917	642.9201	8.280608
31.28750	643.0877	8.278849
31.29584	643.2537	8.277062
31.30416	643.4186	8.275308
31.31250	643.5891	8.273606
31.32084	643.7551	8.271918
31.32916	643.9228	8.270178
31.33750	644.0889	8.268389
31.34583	644.2544	8.266586
31.35416	644.4202	8.264758
31.36250	644.5884	8.262915
31.37083	644.7559	8.261124
31.37917	644.9212	8.259374
31.38750	645.0884	8.257584
31.39584	645.2564	8.255736
31.40417	645.4210	8.253875
31.41250	645.5883	8.252076
31.42084	645.7557	8.250348
31.42916	645.9216	8.248671
31.43750	646.0874	8.247039
31.44584	646.2551	8.245441
31.45416	646.4196	8.243798
31.46250	646.5876	8.242136
31.47083	646.7538	8.240460
31.47916	646.9205	8.238750
31.48750	647.0860	8.237042
31.49583	647.2550	8.235338
31.50417	647.4205	8.233661
31.51250	647.5880	8.231932
31.52084	647.7552	8.230078
31.52917	647.9204	8.228171
31.53750	648.0868	8.226306
31.54584	648.2530	8.224480
31.55416	648.4188	8.222665
31.56250	648.5876	8.220892
31.57084	648.7520	8.219124
31.57916	648.9205	8.217306
31.58750	649.0861	8.215402
31.59583	649.2521	8.213530
31.60416	649.4198	8.211765
31.61250	649.5864	8.210016
31.62083	649.7512	8.208250
31.62917	649.9193	8.206490
31.63750	650.0873	8.204757
31.64584	650.2520	8.203001
31.65417	650.4180	8.201251
31.66250	650.5855	8.199538
31.67084	650.7515	8.197863
31.67916	650.9194	8.196155
31.68750	651.0846	8.194402
31.69584	651.2518	8.192630
31.70416	651.4161	8.190826
31.71250	651.5849	8.189009
31.72083	651.7506	8.187188
31.72916	651.9176	8.185374
31.73750	652.0836	8.183534
31.74583	652.2498	8.181694
31.75417	652.4176	8.179852
31.76250	652.5836	8.178026
31.77084	652.7494	8.176204
31.77917	652.9150	8.174395
31.78750	653.0832	8.172612
31.79584	653.2486	8.170816
31.80416	653.4156	8.168994
31.81250	653.5818	8.167192
31.82084	653.7474	8.165436
31.82916	653.9135	8.163647
31.83750	654.0805	8.161824
31.84583	654.2467	8.159988
31.85416	654.4125	8.158156
31.86250	654.5796	8.156344
31.87083	654.7455	8.154532
31.87917	654.9128	8.152720
31.88750	655.0820	8.150932
31.89584	655.2466	8.149122
31.90417	655.4101	8.147302
31.91250	655.5774	8.145493
31.92084	655.7445	8.143622
31.92916	655.9090	8.141742
31.93750	656.0761	8.139918
31.94584	656.2411	8.138076
31.95416	656.4055	8.136238
31.96250	656.5766	8.134406
31.97083	656.7394	8.132568
31.97916	656.9079	8.130741
31.98750	657.0724	8.128891
31.99583	657.2403	8.127032
32.00416	657.4056	8.125222
32.01250	657.5726	8.123435
32.02083	657.7360	8.121555
32.02917	657.9044	8.119691
32.03750	658.0702	8.117870
32.04584	658.2363	8.116006
32.05416	658.4016	8.114150
32.06250	658.5680	8.112308
32.07084	658.7350	8.110472
32.07916	658.8995	8.108637
32.08750	659.0680	8.106811
32.09583	659.2339	8.104963
32.10417	659.4004	8.103166
32.11250	659.5672	8.101349
32.12084	659.7329	8.099490
32.12916	659.8986	8.097657
32.13750	660.0654	8.095816
32.14583	660.2296	8.093951
32.15417	660.3980	8.092061
32.16250	660.5648	8.090210
32.17084	660.7288	8.088360
32.17916	660.8972	8.086519
32.18750	661.0611	8.084682
32.19584	661.2306	8.082837
32.20416	661.3941	8.080956
32.21250	661.5609	8.079092
32.22083	661.7266	8.077275
32.22917	661.8926	8.075481
32.23750	662.0589	8.073676
32.24584	662.2250	8.071848
32.25416	662.3898	8.070016
32.26250	662.5569	8.068186
32.27083	662.7199	8.066342
32.27917	662.8891	8.064506
32.28750	663.0570	8.062702
32.29584	663.2196	8.060889
32.30416	663.3886	8.059008
32.31250	663.5520	8.057103
32.32084	663.7201	8.055237
32.32916	663.8840	8.053364
32.33750	664.0515	8.051514
32.34583	664.2159	8.049640
32.35417	664.3840	8.047739
32.36250	664.5510	8.045865
32.37084	664.7181	8.043972
32.37916	664.8818	8.042076
32.38750	665.0496	8.040198
32.39583	665.2118	8.038330
32.40417	665.3813	8.036450
32.41250	665.5481	8.034551
32.42084	665.7128	8.032678
32.42916	665.8782	8.030864
32.43750	666.0442	8.029084
32.44584	666.2118	8.027235
32.45416	666.3764	8.025394
32.46250	666.5424	8.023554
32.47083	666.7099	8.021718
32.47917	666.8759	8.019880
32.48750	667.0488	8.018040
32.49584	667.2164	8.016222
32.50416	667.3769	8.014368
32.51250	667.5406	8.012488
32.52083	667.7053	8.010614
32.52917	667.8725	8.008768
32.53750	668.0401	8.006916
32.54584	668.2037	8.005072
32.55416	668.3691	8.003231
32.56250	668.5418	8.001368
32.57084	668.7094	7.999505
32.57916	668.8726	7.997659
32.58750	669.0331	7.995790
32.59583	669.1989	7.993891
32.60417	669.3656	7.991996
32.61250	669.5337	7.990113
32.62084	669.6984	7.988247
32.62916	669.8643	7.986351
32.63750	670.0310	7.984432
32.64583	670.1952	7.982537
32.65417	670.3637	7.980663
32.66250	670.5310	7.978784
32.67084	670.6930	7.976922
32.67916	670.8613	7.975063
32.68750	671.0253	7.973202
32.69584	671.1922	7.971319
32.70416	671.3594	7.969428
32.71250	671.5269	7.967621
32.72083	671.6918	7.965762
32.72917	671.8592	7.963891
32.73750	672.0240	7.962019
32.74584	672.1895	7.960139
32.75416	672.3566	7.958237
32.76250	672.5220	7.956345
32.77083	672.6880	7.954454
32.77917	672.8544	7.952590
32.78750	673.0218	7.950708
32.79584	673.1860	7.948750
32.80416	673.3520	7.946856
32.81250	673.5196	7.944950
32.82084	673.6859	7.943018
32.82916	673.8504	7.941074
32.83750	674.0171	7.939157
32.84583	674.1834	7.937239
32.85417	674.3506	7.935301
32.86250	674.5152	7.933342
32.87084	674.6811	7.931416
32.87916	674.8468	7.929525
32.88750	675.0146	7.927652
32.89583	675.1784	7.925764
32.90417	675.3450	7.923858
32.91250	675.5101	7.921926
32.92084	675.6776	7.919994
32.92916	675.8436	7.918066
32.93750	676.0098	7.916119
32.94584	676.1750	7.914200
32.95416	676.3420	7.912266
32.96250	676.5078	7.910295
32.97083	676.6753	7.908313
32.97917	676.8402	7.906358
32.98750	677.0047	7.904426
32.99584	677.1718	7.902507
33.00416	677.3392	7.900568
33.01250	677.5056	7.898642
33.02083	677.6699	7.896726
33.02917	677.8362	7.894770
33.03750	678.0053	7.892810
33.04584	678.1685	7.890864
33.05416	678.3328	7.888915
33.06250	678.4989	7.886960
33.07084	678.6672	7.884994
33.07916	678.8313	7.883028
33.08750	678.9980	7.881068
33.09583	679.1650	7.879089
33.10417	679.3312	7.877145
33.11250	679.4976	7.875212
33.12084	679.6635	7.873290
33.12916	679.8318	7.871387
33.13750	679.9951	7.869447
33.14583	680.1616	7.867498
33.15417	680.3276	7.865620
33.16250	680.4993	7.863730
33.17084	680.6628	7.861787
33.17916	680.8258	7.859855
33.18750	680.9914	7.857929
33.19584	681.1584	7.855996
33.20416	681.3250	7.854040
33.21250	681.4934	7.852080
33.22083	681.6572	7.850141
33.22917	681.8212	7.848215
33.23750	681.9872	7.846239
33.24584	682.1534	7.844297
33.25416	682.3203	7.842418
33.26250	682.4864	7.840530
33.27083	682.6540	7.838610
33.27917	682.8180	7.836700
33.28750	682.9859	7.834795
33.29584	683.1522	7.832886
33.30416	683.3178	7.830992
33.31250	683.4821	7.829092
33.32084	683.6481	7.827170
33.32916	683.8157	7.825235
33.33750	683.9810	7.823292
33.34583	684.1506	7.821351
33.35417	684.3219	7.819399
33.36250	684.4882	7.817460
33.37084	684.6553	7.815516
33.37916	684.8162	7.813569
33.38750	684.9794	7.811626
33.39583	685.1457	7.809699
33.40417	685.3100	7.807774
33.41250	685.4789	7.805860
33.42084	685.6496	7.803932
33.42916	685.8097	7.802024
33.43750	685.9762	7.800141
33.44584	686.1422	7.798190
33.45416	686.3082	7.796219
33.46250	686.4747	7.794300
33.47083	686.6406	7.792392
33.47917	686.8087	7.790430
33.48750	686.9740	7.788474
33.49584	687.1381	7.786547
33.50416	687.3045	7.784644
33.51250	687.4718	7.782724
33.52083	687.6365	7.780799
33.52917	687.8032	7.778916
33.53750	687.9652	7.777056
33.54584	688.1356	7.775145
33.55416	688.2996	7.773222
33.56250	688.4671	7.771345
33.57084	688.6331	7.769464
33.57916	688.7997	7.767542
33.58750	688.9634	7.765603
33.59583	689.1324	7.763666
33.60417	689.2964	7.761740
33.61250	689.4622	7.759820
33.62084	689.6288	7.757900
33.62916	689.7936	7.755976
33.63750	689.9606	7.754066
33.64583	690.1264	7.752145
33.65417	690.2938	7.750218
33.66250	690.4588	7.748294
33.67084	690.6246	7.746400
33.67916	690.7876	7.744511
33.68750	690.9565	7.742598
33.69584	691.1230	7.740694
33.70416	691.2891	7.738808
33.71250	691.4538	7.736920
33.72083	691.6212	7.735022
33.72917	691.7882	7.733145
33.73750	691.9537	7.731276
33.74584	692.1192	7.729406
33.75416	692.2868	7.727512
33.76250	692.4507	7.725636
33.77083	692.6194	7.723756
33.77917	692.7894	7.721884
33.78750	692.9520	7.719990
33.79584	693.1181	7.718088
33.80416	693.2837	7.716150
33.81250	693.4512	7.714222
33.82084	693.6175	7.712290
33.82916	693.7821	7.710342
33.83750	693.9493	7.708422
33.84583	694.1153	7.706512
33.85417	694.2825	7.704626
33.86250	694.4475	7.702731
33.87084	694.6142	7.700828
33.87916	694.7825	7.698940
33.88750	694.9452	7.697078
33.89583	695.1126	7.695206
33.90417	695.2790	7.693369
33.91250	695.4439	7.691553
33.92084	695.6106	7.689712
33.92916	695.7778	7.687822
33.93750	695.9425	7.685925
33.94584	696.1094	7.684032
33.95416	696.2743	7.682162
33.96250	696.4419	7.680293
33.97083	696.6111	7.678428
33.97917	696.7772	7.676565
33.98750	696.9419	7.674684
33.99584	697.1050	7.672781
34.00416	697.2704	7.670887
34.01250	697.4384	7.669028
34.02083	697.6020	7.667151
34.02917	697.7700	7.665266
34.03750	697.9348	7.663390
34.04584	698.1024	7.661505
34.05416	698.2694	7.659619
34.06250	698.4353	7.657758
34.07084	698.6020	7.655872
34.07916	698.7691	7.653982
34.08750	698.9352	7.652106
34.09583	699.0995	7.650222
34.10417	699.2679	7.648359
34.11250	699.4328	7.646488
34.12084	699.5962	7.644592
34.12916	699.7645	7.642700
34.13750	699.9293	7.640811
34.14583	700.0974	7.638913
34.15417	700.2632	7.637026
34.16250	700.4312	7.635148
34.17084	700.5980	7.633286
34.17916	700.7648	7.631425
34.18750	700.9286	7.629563
34.19584	701.0945	7.627725
34.20416	701.2592	7.625882
34.21250	701.4269	7.624056
34.22083	701.5950	7.622240
34.22917	701.7600	7.620400
34.23750	701.9260	7.618562
34.24584	702.0924	7.616741
34.25416	702.2605	7.614884
34.26250	702.4240	7.613013
34.27083	702.5922	7.611138
34.27917	702.7575	7.609251
34.28750	702.9235	7.607398
34.29584	703.0890	7.605540
34.30416	703.2561	7.603656
34.31250	703.4231	7.601785
34.32084	703.5895	7.599954
34.32916	703.7545	7.598099
34.33750	703.9216	7.596274
34.34583	704.0871	7.594463
34.35417	704.2554	7.592650
34.36250	704.4190	7.590842
34.37084	704.5853	7.589028
34.37916	704.7540	7.587189
34.38750	704.9195	7.585363
34.39583	705.0853	7.583566
34.40417	705.2518	7.581732
34.41250	705.4192	7.579902
34.42084	705.5850	7.578090
34.42916	705.7507	7.576270
34.43750	705.9162	7.574460
34.44584	706.0818	7.572660
34.45416	706.2507	7.570884
34.46250	706.4166	7.569138
34.47083	706.5818	7.567395
34.47917	706.7495	7.565624
34.48750	706.9141	7.563874
34.49584	707.0805	7.562152
34.50416	707.2463	7.560394
34.51250	707.4140	7.558648
34.52083	707.5806	7.556904
34.52917	707.7476	7.555185
34.53750	707.9112	7.553438
34.54584	708.0788	7.551666
34.55416	708.2457	7.549911
34.56250	708.4131	7.548151
34.57084	708.5782	7.546418
34.57916	708.7470	7.544679
34.58750	708.9105	7.542975
34.59583	709.0778	7.541284
34.60417	709.2437	7.539550
34.61250	709.4121	7.537795
34.62084	709.5766	7.536085
34.62916	709.7434	7.534408
34.63750	709.9080	7.532739
34.64583	710.0772	7.531094
34.65417	710.2436	7.529413
34.66250	710.4110	7.527749
34.67084	710.5751	7.526069
34.67916	710.7412	7.524384
34.68750	710.9074	7.522758
34.69584	711.0740	7.521121
34.70416	711.2416	7.519458
34.71250	711.4076	7.517818
34.72083	711.5745	7.516131
34.72917	711.7411	7.514431
34.73750	711.9072	7.512811
34.74584	712.0741	7.511148
34.75416	712.2399	7.509480
34.76250	712.4049	7.507810
34.77083	712.5730	7.506156
34.77917	712.7388	7.504510
34.78750	712.9040	7.502868
34.79584	713.0708	7.501194
34.80416	713.2378	7.499582
34.81250	713.4063	7.497997
34.82084	713.5766	7.496318
34.82916	713.7428	7.494682
34.83750	713.9055	7.493057
34.84583	714.0706	7.491430
34.85417	714.2368	7.489782
34.86250	714.4049	7.488110
34.87084	714.5706	7.486461
34.87916	714.7360	7.484819
34.88750	714.9014	7.483163
34.89583	715.0714	7.481508
34.90417	715.2413	7.479837
34.91250	715.4094	7.478198
34.92084	715.5758	7.476574
34.92916	715.7430	7.474922
34.93750	715.9078	7.473288
34.94584	716.0747	7.471694
34.95416	716.2410	7.470072
34.96250	716.4099	7.468444
34.97083	716.5708	7.466791
34.97917	716.7360	7.465140
34.98750	716.9082	7.463576
34.99584	717.0736	7.461964
35.00416	717.2406	7.460318
35.01250	717.4072	7.458712
35.02083	717.5730	7.457108
35.02917	717.7390	7.455500
35.03750	717.9055	7.453906
35.04584	718.0742	7.452310
35.05416	718.2412	7.450735
35.06250	718.4063	7.449175
35.07084	718.5676	7.447576
35.07916	718.7318	7.446006
35.08750	718.8995	7.444458
35.09583	719.0660	7.442878
35.10417	719.2342	7.441300
35.11250	719.3985	7.439726
35.12084	719.5655	7.438160
35.12916	719.7335	7.436620
35.13750	719.8988	7.435108
35.14583	720.0668	7.433514
35.15417	720.2322	7.431920
35.16250	720.4005	7.430335
35.17084	720.5669	7.428772
35.17916	720.7326	7.427224
35.18750	720.8980	7.425664
35.19584	721.0654	7.424075
35.20416	721.2298	7.422485
35.21250	721.4000	7.420931
35.22083	721.5626	7.419304
35.22917	721.7311	7.417749
35.23750	721.8957	7.416181
35.24584	722.0644	7.414570
35.25416	722.2285	7.412970
35.26250	722.3934	7.411374
35.27083	722.5641	7.409790
35.27917	722.7292	7.408240
35.28750	722.8960	7.406671
35.29584	723.0592	7.405069
35.30416	723.2294	7.403554
35.31250	723.3938	7.402028
35.32084	723.5615	7.400491
35.32916	723.7263	7.398986
35.33750	723.8944	7.397450
35.34583	724.0587	7.395900
35.35417	724.2261	7.394350
35.36250	724.3913	7.392813
35.37084	724.5606	7.391296
35.37916	724.7266	7.389766
35.38750	724.8924	7.388195
35.39583	725.0570	7.386619
35.40417	725.2245	7.385045
35.41250	725.3914	7.383460
35.42084	725.5578	7.381888
35.42916	725.7235	7.380340
35.43750	725.8900	7.378798
35.44584	726.0570	7.377265
35.45416	726.2236	7.375725
35.46250	726.3876	7.374152
35.47083	726.5552	7.372609
35.47917	726.7226	7.371079
35.48750	726.8884	7.369563
35.49584	727.0558	7.368079
35.50416	727.2210	7.366599
35.51250	727.3880	7.365088
35.52083	727.5528	7.363549
35.52917	727.7212	7.361968
35.53750	727.8872	7.360412
35.54584	728.0534	7.358901
35.55416	728.2185	7.357350
35.56250	728.3860	7.355821
35.57084	728.5526	7.354318
35.57916	728.7187	7.352762
35.58750	728.8842	7.351226
35.59583	729.0501	7.349720
35.60417	729.2159	7.348241
35.61250	729.3828	7.346759
35.62084	729.5512	7.345258
35.62916	729.7211	7.343768
35.63750	729.8816	7.342256
35.64583	730.0462	7.340738
35.65417	730.2128	7.339212
35.66250	730.3799	7.337726
35.67084	730.5437	7.336210
35.67916	730.7132	7.334697
35.68750	730.8755	7.333184
35.69584	731.0424	7.331688
35.70416	731.2100	7.330176
35.71250	731.3749	7.328638
35.72083	731.5425	7.327134
35.72917	731.7087	7.325614
35.73750	731.8744	7.324109
35.74584	732.0411	7.322621
35.75416	732.2084	7.321132
35.76250	732.3739	7.319616
35.77083	732.5401	7.318092
35.77917	732.7075	7.316599
35.78750	732.8736	7.315122
35.79584	733.0390	7.313644
35.80416	733.2056	7.312150
35.81250	733.3738	7.310624
35.82084	733.5374	7.309101
35.82916	733.7043	7.307550
35.83750	733.8722	7.306038
35.84583	734.0388	7.304549
35.85417	734.2054	7.303078
35.86250	734.3696	7.301582
35.87084	734.5380	7.300078
35.87916	734.7045	7.298590
35.88750	734.8690	7.297134
35.89583	735.0347	7.295700
35.90417	735.2035	7.294220
35.91250	735.3697	7.292755
35.92084	735.5364	7.291262
35.92916	735.7009	7.289785
35.93750	735.8686	7.288300
35.94584	736.0356	7.286792
35.95416	736.2001	7.285300
35.96250	736.3675	7.283811
35.97083	736.5342	7.282310
35.97917	736.6988	7.280804
35.98750	736.8645	7.279319
35.99584	737.0306	7.277822
36.00416	737.2053	7.276310
36.01250	737.3645	7.274824
36.02083	737.5316	7.273372
36.02917	737.6972	7.271906
36.03750	737.8637	7.270434
36.04584	738.0300	7.268940
36.05416	738.1991	7.267457
36.06250	738.3684	7.265984
36.07084	738.5359	7.264528
36.07916	738.7030	7.263092
36.08750	738.8708	7.261647
36.09583	739.0358	7.260175
36.10417	739.2020	7.258686
36.11250	739.3707	7.257218
36.12084	739.5355	7.255732
36.12916	739.6950	7.254266
36.13750	739.8589	7.252804
36.14583	740.0276	7.251324
36.15417	740.1922	7.249829
36.16250	740.3612	7.248334
36.17084	740.5274	7.246834
36.17916	740.6934	7.245338
36.18750	740.8592	7.243881
36.19584	741.0257	7.242401
36.20416	741.1913	7.240939
36.21250	741.3603	7.239478
36.22083	741.5255	7.238012
36.22917	741.6929	7.236570
36.23750	741.8582	7.235134
36.24584	742.0260	7.233692
36.25416	742.1924	7.232251
36.26250	742.3582	7.230795
36.27083	742.5239	7.229285
36.27917	742.6921	7.227816
36.28750	742.8658	7.226365
36.29584	743.0286	7.224903
36.30416	743.1957	7.223443
36.31250	743.3578	7.221984
36.32084	743.5250	7.220504
36.32916	743.6900	7.219025
36.33750	743.8562	7.217572
36.34583	744.0238	7.216114
36.35417	744.1913	7.214674
36.36250	744.3548	7.213244
36.37084	744.5216	7.211814
36.37916	744.6900	7.210391
36.38750	744.8556	7.208955
36.39583	745.0214	7.207525
36.40417	745.1890	7.206102
36.41250	745.3566	7.204680
36.42084	745.5251	7.203228
36.42916	745.6900	7.201784
36.43750	745.8579	7.200332
36.44584	746.0210	7.198866
36.45416	746.1864	7.197390
36.46250	746.3559	7.195947
36.47083	746.5224	7.194538
36.47917	746.6878	7.193106
36.48750	746.8550	7.191686
36.49584	747.0218	7.190278
36.50416	747.1878	7.188900
36.51250	747.3549	7.187511
36.52083	747.5216	7.186101
36.52917	747.6878	7.184720
36.53750	747.8528	7.183340
36.54584	748.0187	7.181905
36.55416	748.1851	7.180464
36.56250	748.3526	7.179076
36.57084	748.5201	7.177672
36.57916	748.6852	7.176246
36.58750	748.8518	7.174814
36.59583	749.0186	7.173389
36.60417	749.1856	7.171997
36.61250	749.3519	7.170587
36.62084	749.5187	7.169160
36.62916	749.6856	7.167765
36.63750	749.8507	7.166371
36.64583	750.0187	7.164939
36.65417	750.1812	7.163530
36.66250	750.3511	7.162131
36.67084	750.5150	7.160731
36.67916	750.6824	7.159320
36.68750	750.8495	7.157891
36.69584	751.0165	7.156490
36.70416	751.1818	7.155110
36.71250	751.3484	7.153712
36.72083	751.5152	7.152282
36.72917	751.6790	7.150840
36.73750	751.8466	7.149407
36.74584	752.0126	7.147962
36.75416	752.1796	7.146532
36.76250	752.3464	7.145148
36.77083	752.5099	7.143732
36.77917	752.6797	7.142314
36.78750	752.8451	7.140900
36.79584	753.0124	7.139488
36.80416	753.1772	7.138111
36.81250	753.3446	7.136774
36.82084	753.5132	7.135420
36.82916	753.6760	7.134072
36.83750	753.8435	7.132715
36.84583	754.0112	7.131313
36.85417	754.1751	7.129940
36.86250	754.3419	7.128553
36.87084	754.5090	7.127164
36.87916	754.6753	7.125792
36.88750	754.8412	7.124395
36.89583	755.0074	7.122984
36.90417	755.1755	7.121576
36.91250	755.3420	7.120171
36.92084	755.5058	7.118784
36.92916	755.6738	7.117446
36.93750	755.8408	7.116122
36.94584	756.0070	7.114745
36.95416	756.1742	7.113354
36.96250	756.3413	7.111938
36.97083	756.5074	7.110554
36.97917	756.6716	7.109168
36.98750	756.8391	7.107774
36.99584	757.0066	7.106396
37.00416	757.1725	7.105020
37.01250	757.3380	7.103595
37.02083	757.5050	7.102199
37.02917	757.6707	7.100875
37.03750	757.8356	7.099558
37.04584	758.0024	7.098243
37.05416	758.1706	7.096884
37.06250	758.3374	7.095502
37.07084	758.5043	7.094144
37.07916	758.6689	7.092756
37.08750	758.8361	7.091384
37.09583	759.0028	7.090043
37.10417	759.1684	7.088686
37.11250	759.3349	7.087308
37.12084	759.5020	7.085919
37.12916	759.6700	7.084563
37.13750	759.8353	7.083239
37.14583	760.0010	7.081920
37.15417	760.1668	7.080581
37.16250	760.3331	7.079290
37.17084	760.5019	7.077979
37.17916	760.6694	7.076629
37.18750	760.8379	7.075297
37.19584	761.0074	7.073980
37.20416	761.1720	7.072671
37.21250	761.3370	7.071332
37.22083	761.5051	7.070024
37.22917	761.6728	7.068740
37.23750	761.8394	7.067440
37.24584	762.0044	7.066098
37.25416	762.1702	7.064756
37.26250	762.3388	7.063431
37.27083	762.5040	7.062053
37.27917	762.6700	7.060678
37.28750	762.8366	7.059350
37.29584	763.0051	7.058020
37.30416	763.1684	7.056684
37.31250	763.3321	7.055312
37.32084	763.4960	7.053968
37.32916	763.6620	7.052670
37.33750	763.8276	7.051384
37.34583	763.9945	7.050108
37.35417	764.1599	7.048858
37.36250	764.3275	7.047622
37.37084	764.4937	7.046348
37.37916	764.6592	7.045050
37.38750	764.8250	7.043750
37.39583	764.9913	7.042520
37.40417	765.1578	7.041289
37.41250	765.3261	7.040032
37.42084	765.4914	7.038724
37.42916	765.6571	7.037449
37.43750	765.8238	7.036176
37.44584	765.9919	7.034826
37.45416	766.1556	7.033497
37.46250	766.3231	7.032208
37.47083	766.4900	7.030897
37.47917	766.6588	7.029514
37.48750	766.8250	7.028120
37.49584	766.9903	7.026744
37.50416	767.1561	7.025430
37.51250	767.3237	7.024078
37.52083	767.4897	7.022732
37.52917	767.6563	7.021478
37.53750	767.8226	7.020214
37.54584	767.9891	7.018970
37.55416	768.1550	7.017741
37.56250	768.3224	7.016553
37.57084	768.4894	7.015368
37.57916	768.6568	7.014161
37.58750	768.8208	7.012934
37.59583	768.9879	7.011722
37.60417	769.1545	7.010499
37.61250	769.3214	7.009218
37.62084	769.4879	7.007915
37.62916	769.6539	7.006619
37.63750	769.8200	7.005369
37.64583	769.9879	7.004089
37.65417	770.1547	7.002820
37.66250	770.3214	7.001503
37.67084	770.4868	7.000168
37.67916	770.6531	6.998876
37.68750	770.8195	6.997588
37.69584	770.9876	6.996316
37.70416	771.1518	6.995081
37.71250	771.3195	6.993853
37.72083	771.4838	6.992579
37.72917	771.6562	6.991326
37.73750	771.8280	6.990076
37.74584	771.9972	6.988853
37.75416	772.1610	6.987657
37.76250	772.3251	6.986394
37.77083	772.4922	6.985101
37.77917	772.6589	6.983886
37.78750	772.8264	6.982652
37.79584	772.9906	6.981400
37.80416	773.1549	6.980169
37.81250	773.3172	6.978907
37.82084	773.4859	6.977660
37.82916	773.6556	6.976443
37.83750	773.8172	6.975241
37.84583	773.9843	6.974060
37.85417	774.1492	6.972884
37.86250	774.3250	6.971636
37.87084	774.4918	6.970387
37.87916	774.6568	6.969161
37.88750	774.8234	6.967922
37.89583	774.9888	6.966720
37.90417	775.1572	6.965486
37.91250	775.3234	6.964246
37.92084	775.4855	6.963010
37.92916	775.6493	6.961761
37.93750	775.8170	6.960554
37.94584	775.9848	6.959364
37.95416	776.1482	6.958163
37.96250	776.3172	6.956926
37.97083	776.4816	6.955702
37.97917	776.6513	6.954493
37.98750	776.8154	6.953318
37.99584	776.9848	6.952140
38.00416	777.1510	6.950910
38.01250	777.3182	6.949710
38.02083	777.4832	6.948479
38.02917	777.6482	6.947226
38.03750	777.8150	6.945980
38.04584	777.9829	6.944759
38.05416	778.1476	6.943548
38.06250	778.3163	6.942332
38.07084	778.4819	6.941086
38.07916	778.6480	6.939859
38.08750	778.8142	6.938675
38.09583	778.9825	6.937465
38.10417	779.1475	6.936276
38.11250	779.3121	6.935116
38.12084	779.4799	6.933972
38.12916	779.6460	6.932806
38.13750	779.8122	6.931621
38.14583	779.9796	6.930444
38.15417	780.1466	6.929288
38.16250	780.3136	6.928138
38.17084	780.4807	6.926999
38.17916	780.6446	6.925830
38.18750	780.8138	6.924664
38.19584	780.9788	6.923503
38.20416	781.1475	6.922329
38.21250	781.3106	6.921168
38.22083	781.4800	6.920000
38.22917	781.6521	6.918800
38.23750	781.8194	6.917588
38.24584	781.9856	6.916351
38.25416	782.1513	6.915131
38.26250	782.3194	6.913987
38.27083	782.4843	6.912806
38.27917	782.6522	6.911594
38.28750	782.8150	6.910395
38.29584	782.9750	6.909230
38.30416	783.1460	6.908079
38.31250	783.3150	6.906934
38.32084	783.4761	6.905806
38.32916	783.6430	6.904705
38.33750	783.8100	6.903593
38.34583	783.9770	6.902455
38.35417	784.1405	6.901362
38.36250	784.3089	6.900253
38.37084	784.4756	6.899114
38.37916	784.6411	6.897947
38.38750	784.8080	6.896762
38.39583	784.9734	6.895570
38.40417	785.1400	6.894421
38.41250	785.3075	6.893256
38.42084	785.4728	6.892056
38.42916	785.6379	6.890876
38.43750	785.8037	6.889697
38.44584	785.9712	6.888526
38.45416	786.1376	6.887403
38.46250	786.3047	6.886300
38.47083	786.4700	6.885219
38.47917	786.6361	6.884119
38.48750	786.8015	6.882970
38.49584	786.9690	6.881866
38.50416	787.1378	6.880787
38.51250	787.3019	6.879654
38.52083	787.4692	6.878520
38.52917	787.6345	6.877394
38.53750	787.8032	6.876279
38.54584	787.9668	6.875152
38.55416	788.1339	6.874020
38.56250	788.2993	6.872926
38.57084	788.4669	6.871861
38.57916	788.6329	6.870755
38.58750	788.7993	6.869640
38.59583	788.9648	6.868555
38.60417	789.1328	6.867476
38.61250	789.2980	6.866410
38.62084	789.4663	6.865298
38.62916	789.6325	6.864136
38.63750	789.7972	6.862999
38.64583	789.9632	6.861860
38.65417	790.1294	6.860719
38.66250	790.2970	6.859571
38.67084	790.4656	6.858420
38.67916	790.6366	6.857305
38.68750	790.8022	6.856179
38.69584	790.9695	6.855066
38.70416	791.1353	6.853949
38.71250	791.3039	6.852918
38.72083	791.4696	6.851888
38.72917	791.6351	6.850784
38.73750	791.8000	6.849663
38.74584	791.9678	6.848565
38.75416	792.1342	6.847496
38.76250	792.3009	6.846380
38.77083	792.4680	6.845245
38.77917	792.6329	6.844124
38.78750	792.7998	6.843084
38.79584	792.9678	6.841986
38.80416	793.1319	6.840887
38.81250	793.2978	6.839868
38.82084	793.4634	6.838860
38.82916	793.6250	6.837835
38.83750	793.7906	6.836798
38.84583	793.9569	6.835788
38.85417	794.1230	6.834790
38.86250	794.2888	6.833782
38.87084	794.4540	6.832705
38.87916	794.6218	6.831656
38.88750	794.7866	6.830586
38.89583	794.9550	6.829518
38.90417	795.1226	6.828444
38.91250	795.2940	6.827369
38.92084	795.4543	6.826300
38.92916	795.6212	6.825220
38.93750	795.7886	6.824138
38.94584	795.9532	6.823036
38.95416	796.1206	6.821972
38.96250	796.2870	6.820891
38.97083	796.4525	6.819824
38.97917	796.6188	6.818748
38.98750	796.7930	6.817697
38.99584	796.9574	6.816678
39.00416	797.1224	6.815650
39.01250	797.2887	6.814619
39.02083	797.4578	6.813599
39.02917	797.6203	6.812608
39.03750	797.7905	6.811575
39.04584	797.9545	6.810528
39.05416	798.1215	6.809496
39.06250	798.2894	6.808472
39.07084	798.4496	6.807429
39.07916	798.6158	6.806304
39.08750	798.7824	6.805212
39.09583	798.9540	6.804220
39.10417	799.1220	6.803179
39.11250	799.2861	6.802158
39.12084	799.4538	6.801174
39.12916	799.6205	6.800190
39.13750	799.7880	6.799152
39.14583	799.9532	6.798111
39.15417	800.1212	6.797119
39.16250	800.2866	6.796182
39.17084	800.4524	6.795184
39.17916	800.6174	6.794116
39.18750	800.7837	6.793139
39.19584	800.9520	6.792155
39.20416	801.1201	6.791140
39.21250	801.2850	6.790149
39.22083	801.4512	6.789201
39.22917	801.6180	6.788256
39.23750	801.7760	6.787270
39.24584	801.9437	6.786300
39.25416	802.1097	6.785389
39.26250	802.2755	6.784452
39.27083	802.4429	6.783444
39.27917	802.6082	6.782418
39.28750	802.7743	6.781406
39.29584	802.9431	6.780422
39.30416	803.1078	6.779434
39.31250	803.2765	6.778442
39.32084	803.4419	6.777462
39.32916	803.6081	6.776461
39.33750	803.7739	6.775439
39.34583	803.9410	6.774432
39.35417	804.1061	6.773480
39.36250	804.2750	6.772515
39.37084	804.4390	6.771530
39.37916	804.6056	6.770550
39.38750	804.7736	6.769562
39.39583	804.9401	6.768587
39.40417	805.1055	6.767599
39.41250	805.2728	6.766616
39.42084	805.4400	6.765650
39.42916	805.6050	6.764674
39.43750	805.7735	6.763701
39.44584	805.9370	6.762744
39.45416	806.1040	6.761804
39.46250	806.2771	6.760840
39.47083	806.4413	6.759908
39.47917	806.6056	6.758979
39.48750	806.7718	6.758060
39.49584	806.9389	6.757157
39.50416	807.1049	6.756226
39.51250	807.2718	6.755298
39.52083	807.4371	6.754376
39.52917	807.6030	6.753451
39.53750	807.7691	6.752537
39.54584	807.9350	6.751618
39.55416	808.1044	6.750664
39.56250	808.2694	6.749692
39.57084	808.4378	6.748732
39.57916	808.6000	6.747786
39.58750	808.7696	6.746862
39.59583	808.9379	6.745938
39.60417	809.1022	6.744988
39.61250	809.2671	6.744018
39.62084	809.4332	6.743070
39.62916	809.5997	6.742140
39.63750	809.7685	6.741224
39.64583	809.9325	6.740312
39.65417	810.1010	6.739389
39.66250	810.2681	6.738460
39.67084	810.4321	6.737537
39.67916	810.6001	6.736645
39.68750	810.7652	6.735760
39.69584	810.9353	6.734884
39.70416	811.0965	6.733975
39.71250	811.2642	6.733064
39.72083	811.4300	6.732168
39.72917	811.5971	6.731262
39.73750	811.7626	6.730352
39.74584	811.9290	6.729468
39.75416	812.1028	6.728569
39.76250	812.2628	6.727640
39.77083	812.4289	6.726715
39.77917	812.5947	6.725829
39.78750	812.7603	6.724928
39.79584	812.9280	6.724030
39.80416	813.0932	6.723139
39.81250	813.2602	6.722266
39.82084	813.4272	6.721382
39.82916	813.5918	6.720456
39.83750	813.7594	6.719550
39.84583	813.9261	6.718656
39.85417	814.0918	6.717761
39.86250	814.2581	6.716831
39.87084	814.4259	6.715938
39.87916	814.5900	6.715034
39.88750	814.7592	6.714111
39.89583	814.9243	6.713206
39.90417	815.0928	6.712304
39.91250	815.2569	6.711432
39.92084	815.4236	6.710548
39.92916	815.5964	6.709662
39.93750	815.7542	6.708772
39.94584	815.9220	6.707900
39.95416	816.0894	6.707000
39.96250	816.2548	6.706129
39.97083	816.4211	6.705282
39.97917	816.5868	6.704376
39.98750	816.7531	6.703512
39.99584	816.9203	6.702661
40.00416	817.0866	6.701807
40.01250	817.2526	6.700962
40.02083	817.4180	6.700129
40.02917	817.5859	6.699311
40.03750	817.7524	6.698507
40.04584	817.9184	6.697656
40.05416	818.0878	6.696799
40.06250	818.2510	6.695988
40.07084	818.4168	6.695156
40.07916	818.5816	6.694275
40.08750	818.7480	6.693374
40.09583	818.9144	6.692501
40.10417	819.0820	6.691625
40.11250	819.2488	6.690766
40.12084	819.4153	6.689890
40.12916	819.5798	6.689048
40.13750	819.7470	6.688216
40.14583	819.9200	6.687375
40.15417	820.0844	6.686545
40.16250	820.2505	6.685710
40.17084	820.4184	6.684898
40.17916	820.5843	6.684049
40.18750	820.7478	6.683210
40.19584	820.9152	6.682334
40.20416	821.0762	6.681482
40.21250	821.2414	6.680644
40.22083	821.4082	6.679786
40.22917	821.5731	6.678964
40.23750	821.7379	6.678124
40.24584	821.9076	6.677265
40.25416	822.0718	6.676392
40.26250	822.2402	6.675558
40.27083	822.4053	6.674725
40.27917	822.5711	6.673905
40.28750	822.7386	6.673072
40.29584	822.9045	6.672276
40.30416	823.0675	6.671504
40.31250	823.2356	6.670630
40.32084	823.4015	6.669760
40.32916	823.5676	6.668968
40.33750	823.7340	6.668179
40.34583	823.9008	6.667339
40.35417	824.0668	6.666516
40.36250	824.2316	6.665720
40.37084	824.4000	6.664920
40.37916	824.5660	6.664072
40.38750	824.7330	6.663211
40.39583	824.8960	6.662424
40.40417	825.0639	6.661658
40.41250	825.2322	6.660866
40.42084	825.3962	6.660088
40.42916	825.5625	6.659321
40.43750	825.7294	6.658522
40.44584	825.8950	6.657722
40.45416	826.0616	6.656924
40.46250	826.2270	6.656122
40.47083	826.3925	6.655331
40.47917	826.5611	6.654516
40.48750	826.7260	6.653671
40.49584	826.8925	6.652841
40.50416	827.0589	6.652008
40.51250	827.2266	6.651172
40.52083	827.3906	6.650353
40.52917	827.5569	6.649556
40.53750	827.7250	6.648754
40.54584	827.8907	6.647976
40.55416	828.0574	6.647206
40.56250	828.2238	6.646439
40.57084	828.3914	6.645676
40.57916	828.5576	6.644926
40.58750	828.7214	6.644187
40.59583	828.8881	6.643469
40.60417	829.0546	6.642765
40.61250	829.2208	6.641989
40.62084	829.3866	6.641230
40.62916	829.5543	6.640464
40.63750	829.7201	6.639676
40.64583	829.8871	6.638891
40.65417	830.0522	6.638114
40.66250	830.2191	6.637300
40.67084	830.3845	6.636485
40.67916	830.5500	6.635688
40.68750	830.7172	6.634912
40.69584	830.8847	6.634116
40.70416	831.0488	6.633349
40.71250	831.2150	6.632588
40.72083	831.3832	6.631822
40.72917	831.5488	6.631074
40.73750	831.7132	6.630324
40.74584	831.8824	6.629595
40.75416	832.0528	6.628900
40.76250	832.2187	6.628151
40.77083	832.3853	6.627397
40.77917	832.5507	6.626678
40.78750	832.7181	6.625928
40.79584	832.8842	6.625162
40.80416	833.0508	6.624400
40.81250	833.2161	6.623626
40.82084	833.3826	6.622876
40.82916	833.5437	6.622114
40.83750	833.7101	6.621303
40.84583	833.8744	6.620532
40.85417	834.0424	6.619760
40.86250	834.2081	6.619000
40.87084	834.3760	6.618243
40.87916	834.5415	6.617498
40.88750	834.7090	6.616750
40.89583	834.8741	6.616016
40.90417	835.0397	6.615284
40.91250	835.2086	6.614535
40.92084	835.3743	6.613809
40.92916	835.5382	6.613086
40.93750	835.7047	6.612350
40.94584	835.8704	6.611616
40.95416	836.0371	6.610874
40.96250	836.2032	6.610122
40.97083	836.3692	6.609394
40.97917	836.5350	6.608648
40.98750	836.7020	6.607900
40.99584	836.8678	6.607201
41.00416	837.0345	6.606488
41.01250	837.2020	6.605768
41.02083	837.3668	6.605071
41.02917	837.5330	6.604332
41.03750	837.6996	6.603581
41.04584	837.8678	6.602844
41.05416	838.0322	6.602076
41.06250	838.2000	6.601350
41.07084	838.3640	6.600624
41.07916	838.5305	6.599832
41.08750	838.6990	6.599056
41.09583	838.8647	6.598309
41.10417	839.0288	6.597511
41.11250	839.1964	6.596740
41.12084	839.3613	6.596013
41.12916	839.5290	6.595255
41.13750	839.6944	6.594532
41.14583	839.8628	6.593810
41.15417	840.0288	6.593082
41.16250	840.1949	6.592400
41.17084	840.3609	6.591712
41.17916	840.5293	6.591003
41.18750	840.6934	6.590336
41.19584	840.8595	6.589686
41.20416	841.0246	6.589022
41.21250	841.1916	6.588324
41.22083	841.3582	6.587644
41.22917	841.5249	6.586987
41.23750	841.6899	6.586260
41.24584	841.8588	6.585525
41.25416	842.0235	6.584806
41.26250	842.1895	6.584081
41.27083	842.3561	6.583350
41.27917	842.5220	6.582634
41.28750	842.6897	6.581890
41.29584	842.8562	6.581176
41.30416	843.0226	6.580432
41.31250	843.1891	6.579675
41.32084	843.3532	6.579008
41.32916	843.5218	6.578334
41.33750	843.6851	6.577661
41.34583	843.8534	6.576965
41.35417	844.0158	6.576228
41.36250	844.1861	6.575460
41.37084	844.3505	6.574762
41.37916	844.5188	6.574090
41.38750	844.6848	6.573431
41.39583	844.8491	6.572753
41.40417	845.0241	6.572045
41.41250	845.1891	6.571344
41.42084	845.3545	6.570639
41.42916	845.5203	6.569922
41.43750	845.6875	6.569239
41.44584	845.8499	6.568568
41.45416	846.0125	6.567853
41.46250	846.1799	6.567149
41.47083	846.3460	6.566444
41.47917	846.5111	6.565724
41.48750	846.6768	6.565000
41.49584	846.8434	6.564284
41.50416	847.0116	6.563578
41.51250	847.1751	6.562897
41.52083	847.3391	6.562197
41.52917	847.5087	6.561472
41.53750	847.6734	6.560781
41.54584	847.8386	6.560103
41.55416	848.0047	6.559420
41.56250	848.1715	6.558736
41.57084	848.3391	6.558075
41.57916	848.5016	6.557402
41.58750	848.6688	6.556729
41.59583	848.8348	6.556079
41.60417	849.0019	6.555420
41.61250	849.1688	6.554780
41.62084	849.3330	6.554141
41.62916	849.4991	6.553516
41.63750	849.6649	6.552866
41.64583	849.8309	6.552199
41.65417	849.9978	6.551523
41.66250	850.1647	6.550855
41.67084	850.3301	6.550182
41.67916	850.4969	6.549488
41.68750	850.6616	6.548802
41.69584	850.8288	6.548098
41.70416	850.9944	6.547370
41.71250	851.1612	6.546618
41.72083	851.3278	6.545908
41.72917	851.4925	6.545237
41.73750	851.6594	6.544568
41.74584	851.8231	6.543891
41.75416	851.9920	6.543216
41.76250	852.1575	6.542554
41.77083	852.3249	6.541910
41.77917	852.4900	6.541270
41.78750	852.6584	6.540656
41.79584	852.8226	6.540045
41.80416	852.9891	6.539387
41.81250	853.1561	6.538718
41.82084	853.3220	6.538038
41.82916	853.4874	6.537360
41.83750	853.6519	6.536645
41.84583	853.8199	6.535918
41.85417	853.9850	6.535204
41.86250	854.1524	6.534534
41.87084	854.3181	6.533845
41.87916	854.4828	6.533164
41.88750	854.6507	6.532480
41.89583	854.8172	6.531809
41.90417	854.9832	6.531156
41.91250	855.1482	6.530520
41.92084	855.3163	6.529896
41.92916	855.4793	6.529262
41.93750	855.6500	6.528643
41.94584	855.8129	6.528008
41.95416	855.9789	6.527365
41.96250	856.1465	6.526715
41.97083	856.3113	6.526090
41.97917	856.4784	6.525464
41.98750	856.6455	6.524816
41.99584	856.8106	6.524136
42.00416	856.9775	6.523488
42.01250	857.1437	6.522847
42.02083	857.3097	6.522186
42.02917	857.4781	6.521526
42.03750	857.6424	6.520837
42.04584	857.8090	6.520171
42.05416	857.9753	6.519498
42.06250	858.1415	6.518829
42.07084	858.3056	6.518171
42.07916	858.4719	6.517526
42.08750	858.6397	6.516860
42.09583	858.8053	6.516211
42.10417	858.9689	6.515588
42.11250	859.1450	6.514932
42.12084	859.3056	6.514304
42.12916	859.4714	6.513680
42.13750	859.6366	6.513024
42.14583	859.8032	6.512370
42.15417	859.9696	6.511728
42.16250	860.1376	6.511098
42.17084	860.3024	6.510455
42.17916	860.4691	6.509810
42.18750	860.6356	6.509150
42.19584	860.8022	6.508512
42.20416	860.9684	6.507882
42.21250	861.1349	6.507239
42.22083	861.2995	6.506635
42.22917	861.4681	6.505982
42.23750	861.6356	6.505326
42.24584	861.8047	6.504669
42.25416	861.9701	6.504043
42.26250	862.1372	6.503416
42.27083	862.2984	6.502776
42.27917	862.4648	6.502150
42.28750	862.6314	6.501514
42.29584	862.7985	6.500845
42.30416	862.9656	6.500166
42.31250	863.1305	6.499563
42.32084	863.2955	6.498965
42.32916	863.4616	6.498339
42.33750	863.6265	6.497718
42.34583	863.7951	6.497088
42.35417	863.9613	6.496450
42.36250	864.1254	6.495826
42.37084	864.2938	6.495198
42.37916	864.4595	6.494594
42.38750	864.6284	6.493992
42.39583	864.7899	6.493342
42.40417	864.9584	6.492680
42.41250	865.1232	6.492056
42.42084	865.2906	6.491415
42.42916	865.4570	6.490760
42.43750	865.6226	6.490130
42.44584	865.7882	6.489481
42.45416	865.9541	6.488848
42.46250	866.1196	6.488213
42.47083	866.2866	6.487579
42.47917	866.4532	6.486940
42.48750	866.6168	6.486295
42.49584	866.7871	6.485660
42.50416	866.9519	6.485020
42.51250	867.1172	6.484410
42.52083	867.2862	6.483761
42.52917	867.4509	6.483129
42.53750	867.6172	6.482478
42.54584	867.7819	6.481819
42.55416	867.9501	6.481174
42.56250	868.1162	6.480548
42.57084	868.2813	6.479957
42.57916	868.4481	6.479359
42.58750	868.6131	6.478750
42.59583	868.7801	6.478122
42.60417	868.9469	6.477511
42.61250	869.1132	6.476890
42.62084	869.2781	6.476294
42.62916	869.4476	6.475696
42.63750	869.6116	6.475082
42.64583	869.7782	6.474456
42.65417	869.9436	6.473790
42.66250	870.1132	6.473088
42.67084	870.2809	6.472422
42.67916	870.4505	6.471780
42.68750	870.6086	6.471178
42.69584	870.7775	6.470547
42.70416	870.9413	6.469884
42.71250	871.1076	6.469256
42.72083	871.2736	6.468627
42.72917	871.4399	6.468008
42.73750	871.6068	6.467429
42.74584	871.7734	6.466885
42.75416	871.9405	6.466308
42.76250	872.1064	6.465711
42.77083	872.2728	6.465056
42.77917	872.4384	6.464426
42.78750	872.6036	6.463818
42.79584	872.7720	6.463193
42.80416	872.9369	6.462563
42.81250	873.1044	6.461875
42.82084	873.2691	6.461184
42.82916	873.4351	6.460513
42.83750	873.6012	6.459870
42.84583	873.7672	6.459238
42.85417	873.9326	6.458654
42.86250	874.0978	6.458041
42.87084	874.2655	6.457430
42.87916	874.4332	6.456816
42.88750	874.5984	6.456209
42.89583	874.7651	6.455655
42.90417	874.9312	6.455059
42.91250	875.0984	6.454443
42.92084	875.2649	6.453836
42.92916	875.4295	6.453231
42.93750	875.5953	6.452613
42.94584	875.7656	6.452031
42.95416	875.9356	6.451437
42.96250	876.1001	6.450835
42.97083	876.2681	6.450217
42.97917	876.4348	6.449616
42.98750	876.5997	6.449035
42.99584	876.7649	6.448438
43.00416	876.9342	6.447838
43.01250	877.0947	6.447228
43.02083	877.2582	6.446607
43.02917	877.4326	6.445984
43.03750	877.5957	6.445334
43.04584	877.7626	6.444679
43.05416	877.9282	6.444087
43.06250	878.0949	6.443508
43.07084	878.2622	6.442914
43.07916	878.4288	6.442322
43.08750	878.5926	6.441705
43.09583	878.7578	6.441098
43.10417	878.9254	6.440479
43.11250	879.0874	6.439868
43.12084	879.2509	6.439283
43.12916	879.4189	6.438694
43.13750	879.5852	6.438074
43.14583	879.7556	6.437428
43.15417	879.9246	6.436789
43.16250	880.0875	6.436170
43.17084	880.2555	6.435570
43.17916	880.4214	6.434963
43.18750	880.5859	6.434370
43.19584	880.7509	6.433793
43.20416	880.9125	6.433214
43.21250	881.0824	6.432654
43.22083	881.2488	6.432076
43.22917	881.4172	6.431504
43.23750	881.5835	6.430942
43.24584	881.7499	6.430364
43.25416	881.9151	6.429776
43.26250	882.0826	6.429186
43.27083	882.2478	6.428578
43.27917	882.4121	6.427932
43.28750	882.5822	6.427304
43.29584	882.7457	6.426687
43.30416	882.9141	6.426075
43.31250	883.0782	6.425428
43.32084	883.2447	6.424791
43.32916	883.4110	6.424155
43.33750	883.5754	6.423535
43.34583	883.7434	6.422937
43.35417	883.9069	6.422372
43.36250	884.0744	6.421844
43.37084	884.2392	6.421293
43.37916	884.4059	6.420686
43.38750	884.5724	6.420080
43.39583	884.7391	6.419531
43.40417	884.9025	6.418970
43.41250	885.0706	6.418399
43.42084	885.2370	6.417832
43.42916	885.4025	6.417260
43.43750	885.5682	6.416662
43.44584	885.7356	6.416035
43.45416	885.8942	6.415434
43.46250	886.0586	6.414871
43.47083	886.2268	6.414293
43.47917	886.3934	6.413662
43.48750	886.5593	6.413035
43.49584	886.7231	6.412436
43.50416	886.8914	6.411804
43.51250	887.0566	6.411163
43.52083	887.2209	6.410551
43.52917	887.3880	6.409980
43.53750	887.5569	6.409351
43.54584	887.7242	6.408723
43.55416	887.8897	6.408132
43.56250	888.0519	6.407543
43.57084	888.2204	6.406976
43.57916	888.3887	6.406391
43.58750	888.5564	6.405806
43.59583	888.7218	6.405200
43.60417	888.8891	6.404556
43.61250	889.0516	6.403904
43.62084	889.2170	6.403320
43.62916	889.3820	6.402737
43.63750	889.5481	6.402128
43.64583	889.7132	6.401538
43.65417	889.8806	6.400943
43.66250	890.0452	6.400351
43.67084	890.2121	6.399765
43.67916	890.3793	6.399205
43.68750	890.5441	6.398662
43.69584	890.7109	6.398113
43.70416	890.8753	6.397534
43.71250	891.0441	6.396954
43.72083	891.2094	6.396389
43.72917	891.3758	6.395820
43.73750	891.5418	6.395239
43.74584	891.7075	6.394651
43.75416	891.8735	6.394070
43.76250	892.0410	6.393457
43.77083	892.2045	6.392864
43.77917	892.3722	6.392268
43.78750	892.5350	6.391696
43.79584	892.7043	6.391134
43.80416	892.8678	6.390564
43.81250	893.0368	6.390015
43.82084	893.2024	6.389458
43.82916	893.3688	6.388896
43.83750	893.5338	6.388331
43.84583	893.7006	6.387751
43.85417	893.8661	6.387160
43.86250	894.0337	6.386559
43.87084	894.1978	6.385942
43.87916	894.3649	6.385290
43.88750	894.5291	6.384629
43.89583	894.6972	6.383975
43.90417	894.8626	6.383350
43.91250	895.0303	6.382748
43.92084	895.1959	6.382144
43.92916	895.3618	6.381594
43.93750	895.5266	6.381030
43.94584	895.6952	6.380466
43.95416	895.8605	6.379902
43.96250	896.0269	6.379363
43.97083	896.1902	6.378838
43.97917	896.3589	6.378296
43.98750	896.5242	6.377729
43.99584	896.6906	6.377158
44.00416	896.8562	6.376556
44.01250	897.0241	6.375928
44.02083	897.1906	6.375318
44.02917	897.3574	6.374698
44.03750	897.5242	6.374067
44.04584	897.6916	6.373465
44.05416	897.8566	6.372870
44.06250	898.0232	6.372292
44.07084	898.1871	6.371731
44.07916	898.3504	6.371132
44.08750	898.5176	6.370551
44.09583	898.6819	6.370000
44.10417	898.8466	6.369440
44.11250	899.0137	6.368900
44.12084	899.1789	6.368373
44.12916	899.3469	6.367812
44.13750	899.5149	6.367242
44.14583	899.6834	6.366662
44.15417	899.8528	6.366062
44.16250	900.0228	6.365507
44.17084	900.1850	6.364961
44.17916	900.3535	6.364418
44.18750	900.5195	6.363889
44.19584	900.6856	6.363285
44.20416	900.8476	6.362695
44.21250	901.0105	6.362104
44.22083	901.1750	6.361498
44.22917	901.3406	6.360913
44.23750	901.5080	6.360348
44.24584	901.6735	6.359780
44.25416	901.8400	6.359216
44.26250	902.0051	6.358624
44.27083	902.1726	6.358005
44.27917	902.3397	6.357440
44.28750	902.5053	6.356878
44.29584	902.6718	6.356329
44.30416	902.8372	6.355801
44.31250	903.0032	6.355250
44.32084	903.1692	6.354682
44.32916	903.3378	6.354098
44.33750	903.5031	6.353528
44.34583	903.6678	6.352951
44.35417	903.8342	6.352398
44.36250	904.0019	6.351858
44.37084	904.1652	6.351293
44.37916	904.3326	6.350706
44.38750	904.5005	6.350107
44.39583	904.6661	6.349511
44.40417	904.8318	6.348904
44.41250	904.9993	6.348304
44.42084	905.1639	6.347676
44.42916	905.3297	6.347015
44.43750	905.4966	6.346370
44.44584	905.6631	6.345784
44.45416	905.8290	6.345208
44.46250	905.9970	6.344621
44.47083	906.1605	6.344044
44.47917	906.3280	6.343484
44.48750	906.4941	6.342939
44.49584	906.6594	6.342380
44.50416	906.8266	6.341819
44.51250	906.9914	6.341296
44.52083	907.1592	6.340744
44.52917	907.3265	6.340134
44.53750	907.4900	6.339516
44.54584	907.6580	6.338932
44.55416	907.8219	6.338356
44.56250	907.9891	6.337737
44.57084	908.1550	6.337170
44.57916	908.3191	6.336643
44.58750	908.4887	6.336094
44.59583	908.6522	6.335548
44.60417	908.8194	6.335039
44.61250	908.9856	6.334492
44.62084	909.1509	6.333938
44.62916	909.3253	6.333402
44.63750	909.4890	6.332850
44.64583	909.6562	6.332331
44.65417	909.8224	6.331748
44.66250	909.9909	6.331128
44.67084	910.1556	6.330551
44.67916	910.3207	6.329949
44.68750	910.4862	6.329350
44.69584	910.6506	6.328809
44.70416	910.8116	6.328252
44.71250	910.9803	6.327658
44.72083	911.1466	6.327070
44.72917	911.3118	6.326484
44.73750	911.4844	6.325919
44.74584	911.6495	6.325362
44.75416	911.8128	6.324795
44.76250	911.9819	6.324238
44.77083	912.1475	6.323653
44.77917	912.3142	6.323038
44.78750	912.4726	6.322456
44.79584	912.6399	6.321876
44.80416	912.8061	6.321322
44.81250	912.9715	6.320774
44.82084	913.1381	6.320210
44.82916	913.3062	6.319644
44.83750	913.4707	6.319098
44.84583	913.6382	6.318562
44.85417	913.8036	6.318018
44.86250	913.9706	6.317480
44.87084	914.1366	6.316934
44.87916	914.3012	6.316387
44.88750	914.4687	6.315828
44.89583	914.6352	6.315270
44.90417	914.8031	6.314698
44.91250	914.9719	6.314126
44.92084	915.1399	6.313559
44.92916	915.3031	6.312980
44.93750	915.4637	6.312376
44.94584	915.6308	6.311768
44.95416	915.7961	6.311162
44.96250	915.9631	6.310550
44.97083	916.1311	6.309912
44.97917	916.2953	6.309256
44.98750	916.4621	6.308657
44.99584	916.6288	6.308069
45.00416	916.7947	6.307463
45.01250	916.9622	6.306884
45.02083	917.1264	6.306354
45.02917	917.2931	6.305815
45.03750	917.4594	6.305276
45.04584	917.6251	6.304766
45.05416	917.7914	6.304283
45.06250	917.9574	6.303788
45.07084	918.1234	6.303235
45.07916	918.2918	6.302695
45.08750	918.4541	6.302168
45.09583	918.6232	6.301625
45.10417	918.7874	6.301062
45.11250	918.9550	6.300543
45.12084	919.1244	6.300037
45.12916	919.2871	6.299439
45.13750	919.4528	6.298834
45.14583	919.6201	6.298245
45.15417	919.7840	6.297692
45.16250	919.9530	6.297131
45.17084	920.1160	6.296550
45.17916	920.2844	6.295967
45.18750	920.4492	6.295395
45.19584	920.6153	6.294765
45.20416	920.7795	6.294138
45.21250	920.9472	6.293580
45.22083	921.1149	6.293006
45.22917	921.2819	6.292410
45.23750	921.4452	6.291834
45.24584	921.6129	6.291244
45.25416	921.7799	6.290656
45.26250	921.9453	6.290105
45.27083	922.1126	6.289508
45.27917	922.2811	6.288925
45.28750	922.4481	6.288343
45.29584	922.6090	6.287780
45.30416	922.7774	6.287239
45.31250	922.9453	6.286694
45.32084	923.1081	6.286118
45.32916	923.2741	6.285540
45.33750	923.4422	6.284967
45.34583	923.6069	6.284370
45.35417	923.7719	6.283809
45.36250	923.9392	6.283260
45.37084	924.1053	6.282696
45.37916	924.2714	6.282105
45.38750	924.4364	6.281488
45.39583	924.6019	6.280902
45.40417	924.7697	6.280312
45.41250	924.9341	6.279724
45.42084	925.1022	6.279152
45.42916	925.2672	6.278576
45.43750	925.4319	6.278002
45.44584	925.5988	6.277410
45.45416	925.7649	6.276836
45.46250	925.9312	6.276284
45.47083	926.0978	6.275751
45.47917	926.2644	6.275208
45.48750	926.4297	6.274654
45.49584	926.5951	6.274110
45.50416	926.7625	6.273578
45.51250	926.9266	6.273032
45.52083	927.0936	6.272463
45.52917	927.2603	6.271900
45.53750	927.4284	6.271314
45.54584	927.5932	6.270718
45.55416	927.7594	6.270130
45.56250	927.9261	6.269544
45.57084	928.0926	6.268968
45.57916	928.2611	6.268379
45.58750	928.4246	6.267790
45.59583	928.5897	6.267230
45.60417	928.7561	6.266700
45.61250	928.9296	6.266150
45.62084	929.0949	6.265594
45.62916	929.2600	6.265040
45.63750	929.4269	6.264501
45.64583	929.5926	6.263933
45.65417	929.7580	6.263335
45.66250	929.9253	6.262766
45.67084	930.0882	6.262198
45.67916	930.2491	6.261598
45.68750	930.4170	6.260977
45.69584	930.5816	6.260394
45.70416	930.7482	6.259850
45.71250	930.9144	6.259311
45.72083	931.0798	6.258746
45.72917	931.2456	6.258219
45.73750	931.4130	6.257722
45.74584	931.5788	6.257187
45.75416	931.7434	6.256635
45.76250	931.9126	6.256086
45.77083	932.0774	6.255542
45.77917	932.2434	6.254980
45.78750	932.4091	6.254392
45.79584	932.5766	6.253790
45.80416	932.7409	6.253193
45.81250	932.9071	6.252588
45.82084	933.0743	6.251970
45.82916	933.2395	6.251378
45.83750	933.4066	6.250778
45.84583	933.5741	6.250176
45.85417	933.7374	6.249604
45.86250	933.9054	6.249045
45.87084	934.0702	6.248474
45.87916	934.2359	6.247911
45.88750	934.4016	6.247356
45.89583	934.5664	6.246814
45.90417	934.7348	6.246281
45.91250	934.9003	6.245738
45.92084	935.0664	6.245182
45.92916	935.2340	6.244596
45.93750	935.3995	6.244000
45.94584	935.5645	6.243409
45.95416	935.7285	6.242801
45.96250	935.8945	6.242182
45.97083	936.0625	6.241584
45.97917	936.2266	6.241016
45.98750	936.3930	6.240422
45.99584	936.5620	6.239838
46.00416	936.7305	6.239253
46.01250	936.8906	6.238695
46.02083	937.0578	6.238130
46.02917	937.2230	6.237561
46.03750	937.3911	6.237012
46.04584	937.5551	6.236488
46.05416	937.7205	6.235940
46.06250	937.8881	6.235343
46.07084	938.0536	6.234746
46.07916	938.2201	6.234144
46.08750	938.3870	6.233582
46.09583	938.5535	6.233037
46.10417	938.7194	6.232481
46.11250	938.8829	6.231887
46.12084	939.0501	6.231328
46.12916	939.2159	6.230768
46.13750	939.3830	6.230166
46.14583	939.5496	6.229566
46.15417	939.7152	6.228975
46.16250	939.8816	6.228394
46.17084	940.0469	6.227799
46.17916	940.2149	6.227188
46.18750	940.3789	6.226605
46.19584	940.5481	6.226066
46.20416	940.7145	6.225498
46.21250	940.8786	6.224906
46.22083	941.0447	6.224360
46.22917	941.2120	6.223820
46.23750	941.3774	6.223291
46.24584	941.5422	6.222739
46.25416	941.7099	6.222154
46.26250	941.8762	6.221582
46.27083	942.0405	6.221006
46.27917	942.2064	6.220419
46.28750	942.3731	6.219843
46.29584	942.5388	6.219250
46.30416	942.7059	6.218640
46.31250	942.8699	6.218049
46.32084	943.0366	6.217449
46.32916	943.2020	6.216826
46.33750	943.3705	6.216238
46.34583	943.5368	6.215662
46.35417	943.7046	6.215097
46.36250	943.8696	6.214530
46.37084	944.0328	6.213916
46.37916	944.1981	6.213344
46.38750	944.3641	6.212778
46.39583	944.5314	6.212182
46.40417	944.6984	6.211610
46.41250	944.8631	6.211057
46.42084	945.0295	6.210518
46.42916	945.1960	6.209940
46.43750	945.3605	6.209344
46.44584	945.5282	6.208766
46.45416	945.6937	6.208224
46.46250	945.8590	6.207652
46.47083	946.0246	6.207087
46.47917	946.1895	6.206488
46.48750	946.3548	6.205874
46.49584	946.5205	6.205286
46.50416	946.6878	6.204653
46.51250	946.8542	6.204054
46.52083	947.0197	6.203476
46.52917	947.1900	6.202878
46.53750	947.3518	6.202288
46.54584	947.5178	6.201732
46.55416	947.6848	6.201171
46.56250	947.8508	6.200640
46.57084	948.0166	6.200110
46.57916	948.1892	6.199543
46.58750	948.3544	6.199004
46.59583	948.5209	6.198480
46.60417	948.6868	6.197937
46.61250	948.8486	6.197385
46.62084	949.0129	6.196810
46.62916	949.1822	6.196191
46.63750	949.3447	6.195557
46.64583	949.5141	6.194926
46.65417	949.6768	6.194301
46.66250	949.8438	6.193707
46.67084	950.0082	6.193130
46.67916	950.1772	6.192530
46.68750	950.3409	6.191922
46.69584	950.5062	6.191337
46.70416	950.6750	6.190781
46.71250	950.8403	6.190248
46.72083	951.0044	6.189729
46.72917	951.1719	6.189200
46.73750	951.3390	6.188668
46.74584	951.5058	6.188111
46.75416	951.6719	6.187549
46.76250	951.8366	6.186993
46.77083	952.0041	6.186458
46.77917	952.1705	6.185906
46.78750	952.3361	6.185318
46.79584	952.5008	6.184732
46.80416	952.6684	6.184158
46.81250	952.8350	6.183594
46.82084	953.0019	6.183044
46.82916	953.1668	6.182484
46.83750	953.3351	6.181909
46.84583	953.5035	6.181340
46.85417	953.6621	6.180774
46.86250	953.8305	6.180164
46.87084	953.9981	6.179580
46.87916	954.1628	6.178982
46.88750	954.3280	6.178380
46.89583	954.4957	6.177799
46.90417	954.6595	6.177201
46.91250	954.8280	6.176609
46.92084	954.9938	6.176040
46.92916	955.1589	6.175450
46.93750	955.3275	6.174830
46.94584	955.4928	6.174261
46.95416	955.6580	6.173678
46.96250	955.8244	6.173080
46.97083	955.9912	6.172488
46.97917	956.1551	6.171880
46.98750	956.3199	6.171299
46.99584	956.4884	6.170720
47.00416	956.6546	6.170102
47.01250	956.8211	6.169468
47.02083	956.9894	6.168877
47.02917	957.1554	6.168312
47.03750	957.3207	6.167774
47.04584	957.4860	6.167196
47.05416	957.6531	6.166607
47.06250	957.8176	6.166021
47.07084	957.9829	6.165422
47.07916	958.1484	6.164825
47.08750	958.3165	6.164244
47.09583	958.4811	6.163716
47.10417	958.6492	6.163156
47.11250	958.8129	6.162562
47.12084	958.9801	6.161936
47.12916	959.1461	6.161374
47.13750	959.3132	6.160839
47.14583	959.4794	6.160290
47.15417	959.6452	6.159722
47.16250	959.8152	6.159140
47.17084	959.9822	6.158590
47.17916	960.1469	6.157971
47.18750	960.3156	6.157354
47.19584	960.4782	6.156778
47.20416	960.6462	6.156165
47.21250	960.8090	6.155578
47.22083	960.9782	6.154969
47.22917	961.1428	6.154346
47.23750	961.3094	6.153748
47.24584	961.4741	6.153176
47.25416	961.6406	6.152578
47.26250	961.8074	6.152022
47.27083	961.9716	6.151443
47.27917	962.1366	6.150796
47.28750	962.2986	6.150214
47.29584	962.4661	6.149614
47.30416	962.6304	6.149008
47.31250	962.7955	6.148420
47.32084	962.9616	6.147844
47.32916	963.1278	6.147301
47.33750	963.2962	6.146744
47.34583	963.4606	6.146142
47.35417	963.6274	6.145550
47.36250	963.7918	6.144972
47.37084	963.9586	6.144380
47.37916	964.1266	6.143820
47.38750	964.2922	6.143250
47.39583	964.4585	6.142649
47.40417	964.6244	6.142049
47.41250	964.7902	6.141413
47.42084	964.9549	6.140780
47.42916	965.1218	6.140205
47.43750	965.2859	6.139630
47.44584	965.4539	6.139059
47.45416	965.6215	6.138488
47.46250	965.7872	6.137900
47.47083	965.9515	6.137359
47.47917	966.1218	6.136850
47.48750	966.2869	6.136305
47.49584	966.4535	6.135720
47.50416	966.6230	6.135168
47.51250	966.7908	6.134598
47.52083	966.9559	6.134015
47.52917	967.1207	6.133424
47.53750	967.2844	6.132828
47.54584	967.4494	6.132203
47.55416	967.6166	6.131539
47.56250	967.7832	6.130879
47.57084	967.9461	6.130254
47.57916	968.1122	6.129668
47.58750	968.2785	6.129038
47.59583	968.4451	6.128432
47.60417	968.6113	6.127854
47.61250	968.7776	6.127282
47.62084	968.9432	6.126704
47.62916	969.1069	6.126148
47.63750	969.2731	6.125610
47.64583	969.4418	6.125012
47.65417	969.6058	6.124384
47.66250	969.7724	6.123784
47.67084	969.9405	6.123193
47.67916	970.1053	6.122563
47.68750	970.2731	6.121934
47.69584	970.4384	6.121343
47.70416	970.6028	6.120770
47.71250	970.7712	6.120180
47.72083	970.9374	6.119594
47.72917	971.1032	6.119056
47.73750	971.2689	6.118505
47.74584	971.4355	6.117910
47.75416	971.6006	6.117334
47.76250	971.7697	6.116785
47.77083	971.9334	6.116229
47.77917	972.1030	6.115615
47.78750	972.2679	6.114986
47.79584	972.4342	6.114360
47.80416	972.6019	6.113715
47.81250	972.7681	6.113087
47.82084	972.9313	6.112500
47.82916	973.1001	6.111908
47.83750	973.2731	6.111337
47.84583	973.4358	6.110760
47.85417	973.5976	6.110163
47.86250	973.7638	6.109601
47.87084	973.9311	6.109048
47.87916	974.0982	6.108458
47.88750	974.2626	6.107885
47.89583	974.4282	6.107314
47.90417	974.5961	6.106719
47.91250	974.7618	6.106125
47.92084	974.9274	6.105523
47.92916	975.0938	6.104908
47.93750	975.2609	6.104301
47.94584	975.4257	6.103700
47.95416	975.5914	6.103089
47.96250	975.7594	6.102481
47.97083	975.9270	6.101865
47.97917	976.0938	6.101250
47.98750	976.2601	6.100650
47.99584	976.4249	6.100060
48.00416	976.5918	6.099465
48.01250	976.7593	6.098889
48.02083	976.9231	6.098316
48.02917	977.0926	6.097709
48.03750	977.2564	6.097106
48.04584	977.4242	6.096558
48.05416	977.5902	6.095979
48.06250	977.7564	6.095356
48.07084	977.9238	6.094776
48.07916	978.0908	6.094197
48.08750	978.2535	6.093610
48.09583	978.4226	6.093022
48.10417	978.5866	6.092446
48.11250	978.7524	6.091878
48.12084	978.9191	6.091308
48.12916	979.0875	6.090689
48.13750	979.2509	6.090111
48.14583	979.4164	6.089575
48.15417	979.5835	6.088986
48.16250	979.7481	6.088390
48.17084	979.9176	6.087782
48.17916	980.0812	6.087164
48.18750	980.2476	6.086524
48.19584	980.4134	6.085876
48.20416	980.5801	6.085234
48.21250	980.7461	6.084642
48.22083	980.9121	6.084065
48.22917	981.0788	6.083447
48.23750	981.2451	6.082813
48.24584	981.4114	6.082202
48.25416	981.5764	6.081607
48.26250	981.7434	6.080980
48.27083	981.9124	6.080365
48.27917	982.0785	6.079778
48.28750	982.2459	6.079197
48.29584	982.4128	6.078572
48.30416	982.5803	6.077942
48.31250	982.7454	6.077340
48.32084	982.9138	6.076764
48.32916	983.0798	6.076174
48.33750	983.2459	6.075570
48.34583	983.4134	6.074996
48.35417	983.5813	6.074421
48.36250	983.7468	6.073861
48.37084	983.9141	6.073298
48.37916	984.0799	6.072727
48.38750	984.2425	6.072129
48.39583	984.4106	6.071564
48.40417	984.5766	6.071011
48.41250	984.7482	6.070440
48.42084	984.9118	6.069861
48.42916	985.0801	6.069272
48.43750	985.2456	6.068696
48.44584	985.4128	6.068068
48.45416	985.5794	6.067442
48.46250	985.7451	6.066839
48.47083	985.9137	6.066238
48.47917	986.0754	6.065610
48.48750	986.2451	6.064961
48.49584	986.4114	6.064326
48.50416	986.5780	6.063668
48.51250	986.7430	6.063028
48.52083	986.9094	6.062432
48.52917	987.0756	6.061816
48.53750	987.2405	6.061223
48.54584	987.4100	6.060611
48.55416	987.5775	6.059980
48.56250	987.7410	6.059372
48.57084	987.9088	6.058750
48.57916	988.0712	6.058132
48.58750	988.2408	6.057568
48.59583	988.4074	6.056986
48.60417	988.5759	6.056355
48.61250	988.7438	6.055770
48.62084	988.9082	6.055191
48.62916	989.0749	6.054636
48.63750	989.2459	6.054092
48.64583	989.4069	6.053488
48.65417	989.5650	6.052890
48.66250	989.7375	6.052290
48.67084	989.9024	6.051690
48.67916	990.0668	6.051081
48.68750	990.2342	6.050470
48.69584	990.3975	6.049891
